Potential (V),Current (µA)
0.0,-0.027999876000000003
-0.002148962,-0.027999876000000003
-0.004297924,-0.027999876000000003
-0.006446886000000001,-0.013999938000000002
-0.008595848,-0.013999938000000002
-0.01074481,-0.013999938000000002
-0.012893773,-0.010499954000000002
-0.015042735000000002,-0.006999969000000001
-0.017191696,-0.006999969000000001
-0.019340658,-0.0034999840000000003
-0.02148962,-0.005249977000000001
-0.023638584,-0.0034999840000000003
-0.025787546,-0.0008749960000000001
-0.027936508000000002,-0.0034999840000000003
-0.030085470000000003,-0.0017499920000000001
-0.03223443,-0.0008749960000000001
-0.034383392,0.0
-0.036532356,-0.0026249880000000004
-0.038681316,-0.00021874900000000002
-0.040830280000000004,0.0006562470000000001
-0.04297924,-0.001531243
-0.045128204000000005,-0.0006562470000000001
-0.047277168,-0.00021874900000000002
-0.049426128,0.00098437
-0.051575092,-0.000207199
-0.053724056000000006,-0.000179199
-0.055873016000000005,0.00011759900000000001
-0.058021976,0.00030799800000000003
-0.060170940000000006,-0.00032479800000000006
-0.062319900000000004,-0.000128799
-0.06446886,0.00042559800000000007
-0.066617824,-0.00015119900000000003
-0.068766784,-0.000179199
-0.070915752,0.00010639900000000001
-0.073064712,0.00031919800000000003
-0.07521367200000001,-0.00032479800000000006
-0.077362632,-0.00013439900000000003
-0.0795116,0.00041999800000000004
-0.08166056000000001,-0.00013439900000000003
-0.08380952800000001,-0.000179199
-0.08595848,9.5199592e-05
-0.088107448,0.000335998
-0.09025640800000001,-0.000330398
-0.092405368,-0.00013439900000000003
-0.094554336,0.000414398
-0.09670329600000001,-0.00011759900000000001
-0.098852256,-0.000184799
-0.101001,7.839966400000001e-05
-0.10314999999999999,0.00034719800000000006
-0.10529899999999999,-0.000330398
-0.107448,-0.000139999
-0.109597,0.000408798
-0.111746,-0.00010079900000000001
-0.113894,-0.00019039900000000003
-0.116043,6.7199712e-05
-0.11819199999999999,0.00036399800000000003
-0.12034099999999999,-0.000330398
-0.12248999999999999,-0.000139999
-0.124639,0.00039759800000000004
-0.12678799999999998,-8.3999632e-05
-0.128937,-0.000195999
-0.13108599999999998,5.5999756000000005e-05
-0.133235,0.00037519800000000004
-0.135384,-0.000330398
-0.137533,-0.000139999
-0.139682,0.00038639800000000004
-0.14183099999999998,-7.279968000000001e-05
-0.14398,-0.00020159900000000003
-0.14612899999999998,3.9199832000000005e-05
-0.148278,0.00038079800000000006
-0.150427,-0.000330398
-0.152576,-0.000145599
-0.154725,0.00037519800000000004
-0.15687399999999999,-5.5999756000000005e-05
-0.159023,-0.000207199
-0.16117199999999998,2.7999878000000003e-05
-0.163321,0.000391998
-0.16547,-0.000330398
-0.167619,-0.000145599
-0.169768,0.000369598
-0.17191599999999999,-3.9199832000000005e-05
-0.174065,-0.000207199
-0.17621399999999998,2.2399902000000004e-05
-0.178363,0.00039759800000000004
-0.18051199999999998,-0.00032479800000000006
-0.182661,-0.000145599
-0.18481,0.000358398
-0.186959,-2.2399902000000004e-05
-0.189108,-0.00021279900000000003
-0.19125699999999998,5.5999750000000005e-06
-0.193406,0.000408798
-0.19555499999999998,-0.00032479800000000006
-0.197704,-0.000145599
-0.199853,0.00034719800000000006
-0.202002,-5.5999750000000005e-06
-0.204151,-0.000218399
-0.20629999999999998,0.0
-0.208449,0.00041999800000000004
-0.21059799999999998,-0.00032479800000000006
-0.212747,-0.00015119900000000003
-0.214896,0.00034159800000000003
-0.217045,5.5999750000000005e-06
-0.219194,-0.00022959800000000002
-0.22134299999999998,-1.1199951000000002e-05
-0.223492,0.00042559800000000007
-0.22564099999999998,-0.00031919800000000003
-0.227789,-0.00015119900000000003
-0.22993799999999998,0.000330398
-0.232087,2.2399902000000004e-05
-0.234236,-0.00023519800000000002
-0.23638499999999998,-1.6799928e-05
-0.238534,0.00043119800000000004
-0.24068299999999998,-0.00031919800000000003
-0.242832,-0.00015119900000000003
-0.24498099999999998,0.00031919800000000003
-0.24713,3.9199832000000005e-05
-0.249279,-0.00023519800000000002
-0.251428,-2.2399902000000004e-05
-0.253577,0.000436798
-0.255726,-0.00031919800000000003
-0.25787499999999997,-0.00015119900000000003
-0.260024,0.000313598
-0.262173,5.0399780000000004e-05
-0.264322,-0.00024079800000000002
-0.266471,-3.3599856e-05
-0.26861999999999997,0.000436798
-0.270769,-0.000313598
-0.272918,-0.00015119900000000003
-0.275067,0.00030239800000000005
-0.27721599999999996,6.7199712e-05
-0.279365,-0.00024639800000000005
-0.281514,-3.9199832000000005e-05
-0.283663,0.00044239800000000004
-0.285811,-0.00030799800000000003
-0.28796,-0.00015119900000000003
-0.290109,0.000291198
-0.29225799999999996,8.3999632e-05
-0.294407,-0.000251998
-0.296556,-5.0399780000000004e-05
-0.298705,0.000447998
-0.300854,-0.00030239800000000005
-0.30300299999999997,-0.00015119900000000003
-0.305152,0.000279998
-0.307301,9.5199592e-05
-0.30945,-0.000257598
-0.31159899999999996,-5.5999756000000005e-05
-0.31374799999999997,0.00045359800000000004
-0.315897,-0.000291198
-0.318046,-0.000156799
-0.320195,0.00026879800000000005
-0.32234399999999996,0.00011759900000000001
-0.324493,-0.000263198
-0.326642,-6.159973199999999e-05
-0.328791,0.00045359800000000004
-0.33094,-0.000291198
-0.33308899999999997,-0.00015119900000000003
-0.335238,0.000257598
-0.337387,0.00013439900000000003
-0.339536,-0.00026879800000000005
-0.341684,-7.279968000000001e-05
-0.343833,0.00045359800000000004
-0.345982,-0.000285598
-0.34813099999999997,-0.000156799
-0.35028,0.00024639800000000005
-0.352429,0.00015119900000000003
-0.354578,-0.000279998
-0.35672699999999996,-8.3999632e-05
-0.358876,0.00045359800000000004
-0.361025,-0.000274398
-0.363174,-0.000156799
-0.365323,0.00023519800000000002
-0.36747199999999997,0.000167999
-0.369621,-0.000285598
-0.37177,-8.959960800000002e-05
-0.373919,0.00045359800000000004
-0.37606799999999996,-0.000263198
-0.37821699999999997,-0.00016239900000000003
-0.380366,0.000218399
-0.382515,0.000184799
-0.384664,-0.000291198
-0.38681299999999996,-9.5199592e-05
-0.388962,0.00045359800000000004
-0.391111,-0.000251998
-0.39326,-0.000156799
-0.39540899999999995,0.000207199
-0.397557,0.00020159900000000003
-0.399706,-0.000296798
-0.40185499999999996,-0.00010079900000000001
-0.404004,0.00045359800000000004
-0.406153,-0.00024079800000000002
-0.408302,-0.00016239900000000003
-0.41045099999999995,0.000195999
-0.41259999999999997,0.00021279900000000003
-0.414749,-0.000296798
-0.416898,-0.00010639900000000001
-0.419047,0.00045359800000000004
-0.42119599999999996,-0.00023519800000000002
-0.42334499999999997,-0.00016239900000000003
-0.425494,0.000184799
-0.427643,0.00022959800000000002
-0.429792,-0.00030799800000000003
-0.43194099999999996,-0.00010639900000000001
-0.43409,0.000447998
-0.436239,-0.00022959800000000002
-0.438388,-0.000167999
-0.44053699999999996,0.00017359900000000003
-0.44268599999999997,0.00024639800000000005
-0.444835,-0.00030799800000000003
-0.446984,-0.00011759900000000001
-0.449133,0.000447998
-0.45128199999999996,-0.000218399
-0.45343,-0.000167999
-0.45557899999999996,0.00016239900000000003
-0.45772799999999997,0.000251998
-0.459877,-0.000313598
-0.462026,-0.00012319900000000002
-0.464175,0.00044239800000000004
-0.46632399999999996,-0.00020159900000000003
-0.468473,-0.000167999
-0.470622,0.000156799
-0.472771,0.00026879800000000005
-0.47491999999999995,-0.00031919800000000003
-0.47706899999999997,-0.00012319900000000002
-0.479218,0.00044239800000000004
-0.481367,-0.00019039900000000003
-0.483516,-0.000167999
-0.48566499999999996,0.000139999
-0.48781399999999997,0.000279998
-0.489963,-0.00032479800000000006
-0.492112,-0.00012319900000000002
-0.49426099999999995,0.000436798
-0.49640999999999996,-0.000179199
-0.498559,-0.00017359900000000003
-0.5007079999999999,0.000128799
-0.498559,0.000296798
-0.49640999999999996,-0.00031919800000000003
-0.49426099999999995,-0.00012319900000000002
-0.492112,0.000436798
-0.489963,-0.000167999
-0.48781399999999997,-0.00017359900000000003
-0.48566499999999996,0.00012319900000000002
-0.483516,0.00030799800000000003
-0.481367,-0.00032479800000000006
-0.479218,-0.000128799
-0.47706899999999997,0.00043119800000000004
-0.47491999999999995,-0.000156799
-0.472771,-0.00017359900000000003
-0.470622,0.00011199900000000001
-0.468473,0.00031919800000000003
-0.46632399999999996,-0.00032479800000000006
-0.464175,-0.00013439900000000003
-0.462026,0.00042559800000000007
-0.459877,-0.000145599
-0.45772799999999997,-0.000179199
-0.45557899999999996,0.00010079900000000001
-0.45343,0.00032479800000000006
-0.45128199999999996,-0.000330398
-0.449133,-0.00013439900000000003
-0.446984,0.00041999800000000004
-0.444835,-0.00013439900000000003
-0.44268599999999997,-0.000184799
-0.44053699999999996,8.959960800000002e-05
-0.438388,0.00034159800000000003
-0.436239,-0.000330398
-0.43409,-0.00013439900000000003
-0.43194099999999996,0.000414398
-0.429792,-0.00011759900000000001
-0.427643,-0.000184799
-0.425494,8.3999632e-05
-0.42334499999999997,0.00035279800000000003
-0.42119599999999996,-0.000330398
-0.419047,-0.00013439900000000003
-0.416898,0.000408798
-0.414749,-0.00010639900000000001
-0.41259999999999997,-0.00019039900000000003
-0.41045099999999995,7.279968000000001e-05
-0.408302,0.00036399800000000003
-0.406153,-0.000330398
-0.404004,-0.000139999
-0.40185499999999996,0.00040319800000000007
-0.399706,-8.959960800000002e-05
-0.397557,-0.00019039900000000003
-0.39540899999999995,6.159973199999999e-05
-0.39326,0.000369598
-0.391111,-0.000330398
-0.388962,-0.000139999
-0.38681299999999996,0.000391998
-0.384664,-7.279968000000001e-05
-0.382515,-0.000195999
-0.380366,5.0399780000000004e-05
-0.37821699999999997,0.00038079800000000006
-0.37606799999999996,-0.000330398
-0.373919,-0.000139999
-0.37177,0.00038639800000000004
-0.369621,-6.159973199999999e-05
-0.36747199999999997,-0.000195999
-0.365323,4.479980400000001e-05
-0.363174,0.000391998
-0.361025,-0.000330398
-0.358876,-0.000139999
-0.35672699999999996,0.00037519800000000004
-0.354578,-5.0399780000000004e-05
-0.352429,-0.00020159900000000003
-0.35028,2.7999878000000003e-05
-0.34813099999999997,0.00039759800000000004
-0.345982,-0.000330398
-0.343833,-0.000139999
-0.341684,0.000369598
-0.339536,-2.7999878000000003e-05
-0.337387,-0.000207199
-0.335238,2.2399902000000004e-05
-0.33308899999999997,0.000408798
-0.33094,-0.00032479800000000006
-0.328791,-0.000139999
-0.326642,0.00036399800000000003
-0.324493,-1.1199951000000002e-05
-0.32234399999999996,-0.00021279900000000003
-0.320195,1.1199951000000002e-05
-0.318046,0.000414398
-0.315897,-0.00032479800000000006
-0.31374799999999997,-0.000145599
-0.31159899999999996,0.00035279800000000003
-0.30945,0.0
-0.307301,-0.00021279900000000003
-0.305152,5.5999750000000005e-06
-0.30300299999999997,0.00042559800000000007
-0.300854,-0.000313598
-0.298705,-0.000139999
-0.296556,0.00034719800000000006
-0.294407,1.1199951000000002e-05
-0.29225799999999996,-0.000223999
-0.290109,0.0
-0.28796,0.00042559800000000007
-0.285811,-0.00031919800000000003
-0.283663,-0.000145599
-0.281514,0.000335998
-0.279365,2.7999878000000003e-05
-0.27721599999999996,-0.00022959800000000002
-0.275067,-1.1199951000000002e-05
-0.272918,0.00042559800000000007
-0.270769,-0.00032479800000000006
-0.26861999999999997,-0.000167999
-0.266471,0.000296798
-0.264322,1.6799928e-05
-0.262173,-0.00022959800000000002
-0.260024,-1.6799928e-05
-0.25787499999999997,0.000436798
-0.255726,-0.00031919800000000003
-0.253577,-0.00016239900000000003
-0.251428,0.00031919800000000003
-0.249279,4.479980400000001e-05
-0.24713,-0.00024079800000000002
-0.24498099999999998,-3.9199832000000005e-05
-0.242832,0.00043119800000000004
-0.24068299999999998,-0.000313598
-0.238534,-0.00015119900000000003
-0.23638499999999998,0.000296798
-0.234236,5.5999756000000005e-05
-0.232087,-0.00024079800000000002
-0.22993799999999998,-3.3599856e-05
-0.227789,0.000436798
-0.22564099999999998,-0.00030239800000000005
-0.223492,-0.00015119900000000003
-0.22134299999999998,0.000291198
-0.219194,7.839966400000001e-05
-0.217045,-0.00024639800000000005
-0.214896,-5.0399780000000004e-05
-0.212747,0.000436798
-0.21059799999999998,-0.000296798
-0.208449,-0.000145599
-0.20629999999999998,0.000274398
-0.204151,9.5199592e-05
-0.202002,-0.00024079800000000002
-0.199853,-5.0399780000000004e-05
-0.197704,0.000447998
-0.19555499999999998,-0.000285598
-0.193406,-0.000145599
-0.19125699999999998,0.00026879800000000005
-0.189108,0.00010639900000000001
-0.186959,-0.00024079800000000002
-0.18481,-2.2399902000000004e-05
-0.182661,0.00046479700000000003
-0.18051199999999998,-0.00026879800000000005
-0.178363,-0.000139999
-0.17621399999999998,0.000257598
-0.174065,0.00011199900000000001
-0.17191599999999999,-0.000251998
-0.169768,-6.7199712e-05
-0.167619,0.00042559800000000007
-0.16547,-0.000285598
-0.163321,-0.000145599
-0.16117199999999998,0.000251998
-0.159023,0.000128799
-0.15687399999999999,-0.000251998
-0.154725,-6.159973199999999e-05
-0.152576,0.000436798
-0.150427,-0.000263198
-0.148278,-0.000139999
-0.14612899999999998,0.00024639800000000005
-0.14398,0.000139999
-0.14183099999999998,-0.00024639800000000005
-0.139682,-6.159973199999999e-05
-0.137533,0.000436798
-0.135384,-0.000257598
-0.133235,-0.000139999
-0.13108599999999998,0.00024079800000000002
-0.128937,0.00015119900000000003
-0.12678799999999998,-0.000251998
-0.124639,-6.7199712e-05
-0.12248999999999999,0.000436798
-0.12034099999999999,-0.000251998
-0.11819199999999999,-0.000139999
-0.116043,0.000223999
-0.113894,0.00016239900000000003
-0.111746,-0.000263198
-0.109597,-7.839966400000001e-05
-0.107448,0.000436798
-0.10529899999999999,-0.00024079800000000002
-0.10314999999999999,-0.00013439900000000003
-0.101001,0.000218399
-0.098852256,0.00017359900000000003
-0.09670329600000001,-0.000263198
-0.094554336,-7.839966400000001e-05
-0.092405368,0.000436798
-0.09025640800000001,-0.00024079800000000002
-0.088107448,-0.000139999
-0.08595848,0.00021279900000000003
-0.08380952800000001,0.000184799
-0.08166056000000001,-0.00026879800000000005
-0.0795116,-8.3999632e-05
-0.077362632,0.000436798
-0.07521367200000001,-0.00024079800000000002
-0.073064712,-0.000145599
-0.070915752,0.00020159900000000003
-0.068766784,0.000195999
-0.066617824,-0.000274398
-0.06446886,-8.959960800000002e-05
-0.062319900000000004,0.00043119800000000004
-0.060170940000000006,-0.00022959800000000002
-0.058021976,-0.000145599
-0.055873016000000005,0.00019039900000000003
-0.053724056000000006,0.00020159900000000003
-0.051575092,-0.000279998
-0.049426128,-9.5199592e-05
-0.047277168,0.00043119800000000004
-0.045128204000000005,-0.000218399
-0.04297924,-0.000145599
-0.040830280000000004,0.000184799
-0.038681316,0.000218399
-0.036532356,-0.000279998
-0.034383392,-0.00010079900000000001
-0.03223443,0.00043119800000000004
-0.030085470000000003,-0.00021279900000000003
-0.027936508000000002,-0.000145599
-0.025787546,0.00017359900000000003
-0.023638584,0.00022959800000000002
-0.02148962,-0.000285598
-0.019340658,-0.00010079900000000001
-0.017191696,0.00042559800000000007
-0.015042735000000002,-0.00020159900000000003
-0.012893773,-0.00015119900000000003
-0.01074481,0.000167999
-0.008595848,0.00024079800000000002
-0.006446886000000001,-0.000291198
-0.004297924,-0.00010079900000000001
-0.002148962,0.00043119800000000004
0.0,-0.000195999
0.002148962,-0.00015119900000000003
0.004297924,0.000156799
0.006446886000000001,0.000251998
0.008595848,-0.000291198
0.01074481,-0.00010639900000000001
0.012893773,0.00042559800000000007
0.015042735000000002,-0.00019039900000000003
0.017191696,-0.000156799
0.019340658,0.00015119900000000003
0.02148962,0.000257598
0.023638584,-0.000296798
0.025787546,-0.00011199900000000001
0.027936508000000002,0.000414398
0.030085470000000003,-0.000184799
0.03223443,-0.000156799
0.034383392,0.000139999
0.036532356,0.000263198
0.038681316,-0.000296798
0.040830280000000004,-0.00011199900000000001
0.04297924,0.000414398
0.045128204000000005,-0.00017359900000000003
0.047277168,-0.000156799
0.049426128,0.000128799
0.051575092,0.000274398
0.053724056000000006,-0.00030239800000000005
0.055873016000000005,-0.00011759900000000001
0.058021976,0.000414398
0.060170940000000006,-0.00016239900000000003
0.062319900000000004,-0.00015119900000000003
0.06446886,0.00012319900000000002
0.066617824,0.000291198
0.068766784,-0.00030239800000000005
0.070915752,-0.00011199900000000001
0.073064712,0.000414398
0.07521367200000001,-0.000145599
0.077362632,-0.000156799
0.0795116,0.00011199900000000001
0.08166056000000001,0.00030239800000000005
0.08380952800000001,-0.000296798
0.08595848,-0.00011759900000000001
0.088107448,0.00040319800000000007
0.09025640800000001,-0.00013439900000000003
0.092405368,-0.00016239900000000003
0.094554336,0.00010079900000000001
0.09670329600000001,0.00030239800000000005
0.098852256,-0.00030799800000000003
0.101001,-0.00012319900000000002
0.10314999999999999,0.000391998
0.10529899999999999,-0.00013439900000000003
0.107448,-0.000167999
0.109597,9.5199592e-05
0.111746,0.000313598
0.113894,-0.00030799800000000003
0.116043,-0.00011759900000000001
0.11819199999999999,0.00039759800000000004
0.12034099999999999,-0.00011759900000000001
0.12248999999999999,-0.00016239900000000003
0.124639,8.959960800000002e-05
0.12678799999999998,0.00032479800000000006
0.128937,-0.00030239800000000005
0.13108599999999998,-0.00011759900000000001
0.133235,0.00040319800000000007
0.135384,-0.00011199900000000001
0.137533,-0.000167999
0.139682,8.3999632e-05
0.14183099999999998,0.000330398
0.14398,-0.000313598
0.14612899999999998,-0.000128799
0.148278,0.00038639800000000004
0.150427,-0.00011199900000000001
0.152576,-0.000179199
0.154725,6.7199712e-05
0.15687399999999999,0.000335998
0.159023,-0.000313598
0.16117199999999998,-0.00013439900000000003
0.163321,0.00038079800000000006
0.16547,-9.5199592e-05
0.167619,-0.000179199
0.169768,6.159973199999999e-05
0.17191599999999999,0.000335998
0.174065,-0.00032479800000000006
0.17621399999999998,-0.00013439900000000003
0.178363,0.00038079800000000006
0.18051199999999998,-8.959960800000002e-05
0.182661,-0.000179199
0.18481,5.5999756000000005e-05
0.186959,0.00035279800000000003
0.189108,-0.000330398
0.19125699999999998,-0.00012319900000000002
0.193406,0.00038079800000000006
0.19555499999999998,-7.279968000000001e-05
0.197704,-0.000184799
0.199853,4.479980400000001e-05
0.202002,0.00036399800000000003
0.204151,-0.00030799800000000003
0.20629999999999998,-0.00012319900000000002
0.208449,0.00037519800000000004
0.21059799999999998,-5.0399780000000004e-05
0.212747,-0.00017359900000000003
0.214896,5.5999756000000005e-05
0.217045,0.00038639800000000004
0.219194,-0.000296798
0.22134299999999998,-0.000128799
0.223492,0.00039759800000000004
0.22564099999999998,-2.7999878000000003e-05
0.227789,-0.000184799
0.22993799999999998,5.0399780000000004e-05
0.232087,0.00043119800000000004
0.234236,-0.000313598
0.23638499999999998,-0.00013439900000000003
0.238534,0.00037519800000000004
0.24068299999999998,-3.9199832000000005e-05
0.242832,-0.00021279900000000003
0.24498099999999998,2.2399902000000004e-05
0.24713,0.00038639800000000004
0.249279,-0.00030239800000000005
0.251428,-0.000128799
0.253577,0.000358398
0.255726,-2.2399902000000004e-05
0.25787499999999997,-0.000184799
0.260024,2.7999878000000003e-05
0.262173,0.00038639800000000004
0.264322,-0.00030799800000000003
0.266471,-0.000128799
0.26861999999999997,0.00035279800000000003
0.270769,-1.6799928e-05
0.272918,-0.000195999
0.275067,1.6799928e-05
0.27721599999999996,0.000391998
0.279365,-0.00030239800000000005
0.281514,-0.000128799
0.283663,0.00034719800000000006
0.285811,0.0
0.28796,-0.000179199
0.290109,2.2399902000000004e-05
0.29225799999999996,0.000408798
0.294407,-0.000313598
0.296556,-0.000156799
0.298705,0.00030799800000000003
0.300854,0.0
0.30300299999999997,-0.00019039900000000003
0.305152,5.5999750000000005e-06
0.307301,0.00040319800000000007
0.30945,-0.000291198
0.31159899999999996,-0.00013439900000000003
0.31374799999999997,0.00032479800000000006
0.315897,0.0
0.318046,-0.00020159900000000003
0.320195,5.5999750000000005e-06
0.32234399999999996,0.000408798
0.324493,-0.00030239800000000005
0.326642,-0.000128799
0.328791,0.000330398
0.33094,3.9199832000000005e-05
0.33308899999999997,-0.000195999
0.335238,0.0
0.337387,0.000436798
0.339536,-0.000279998
0.341684,-0.00013439900000000003
0.343833,0.000313598
0.345982,3.3599856e-05
0.34813099999999997,-0.00021279900000000003
0.35028,-1.6799928e-05
0.352429,0.00040319800000000007
0.354578,-0.00031919800000000003
0.35672699999999996,-0.000145599
0.358876,0.000291198
0.361025,3.3599856e-05
0.363174,-0.00022959800000000002
0.365323,-2.7999878000000003e-05
0.36747199999999997,0.000408798
0.369621,-0.00030799800000000003
0.37177,-0.000139999
0.373919,0.000285598
0.37606799999999996,3.3599856e-05
0.37821699999999997,-0.00022959800000000002
0.380366,-2.7999878000000003e-05
0.382515,0.00044239800000000004
0.384664,-0.000285598
0.38681299999999996,-0.00012319900000000002
0.388962,0.000296798
0.391111,7.279968000000001e-05
0.39326,-0.000218399
0.39540899999999995,-5.5999750000000005e-06
0.397557,0.000408798
0.399706,-0.000296798
0.40185499999999996,-0.000128799
0.404004,0.000291198
0.406153,8.959960800000002e-05
0.408302,-0.000218399
0.41045099999999995,-1.6799928e-05
0.41259999999999997,0.000436798
0.414749,-0.000285598
0.416898,-0.00013439900000000003
0.419047,0.000274398
0.42119599999999996,8.959960800000002e-05
0.42334499999999997,-0.000218399
0.425494,-2.2399902000000004e-05
0.427643,0.00045359800000000004
0.429792,-0.000263198
0.43194099999999996,-0.00011199900000000001
0.43409,0.00026879800000000005
0.436239,0.00010079900000000001
0.438388,-0.00023519800000000002
0.44053699999999996,-5.0399780000000004e-05
0.44268599999999997,0.000414398
0.444835,-0.000296798
0.446984,-0.00013439900000000003
0.449133,0.000257598
0.45128199999999996,0.00010079900000000001
0.45343,-0.00026879800000000005
0.45557899999999996,-6.7199712e-05
0.45772799999999997,0.00043119800000000004
0.459877,-0.00026879800000000005
0.462026,-0.00010639900000000001
0.464175,0.000291198
0.46632399999999996,0.00013439900000000003
0.468473,-0.00023519800000000002
0.470622,-5.0399780000000004e-05
0.472771,0.00042559800000000007
0.47491999999999995,-0.000285598
0.47706899999999997,-0.00015119900000000003
0.479218,0.00023519800000000002
0.481367,8.3999632e-05
0.483516,-0.000285598
0.48566499999999996,-7.839966400000001e-05
0.48781399999999997,0.00044239800000000004
0.489963,-0.000257598
0.492112,-0.00010639900000000001
0.49426099999999995,0.000285598
0.49640999999999996,0.000179199
0.498559,-0.000223999
0.5007079999999999,-6.7199712e-05
0.498559,0.000414398
0.49640999999999996,-0.000274398
0.49426099999999995,-0.000145599
0.492112,0.000251998
0.489963,0.00017359900000000003
0.48781399999999997,-0.00023519800000000002
0.48566499999999996,-4.479980400000001e-05
0.483516,0.00045359800000000004
0.481367,-0.000251998
0.479218,-0.00015119900000000003
0.47706899999999997,0.00021279900000000003
0.47491999999999995,0.00015119900000000003
0.472771,-0.000251998
0.470622,-7.279968000000001e-05
0.468473,0.00045359800000000004
0.46632399999999996,-0.00023519800000000002
0.464175,-0.00011759900000000001
0.462026,0.000257598
0.459877,0.000207199
0.45772799999999997,-0.00021279900000000003
0.45557899999999996,-4.479980400000001e-05
0.45343,0.00045919700000000006
0.45128199999999996,-0.00022959800000000002
0.449133,-0.000128799
0.446984,0.000223999
0.444835,0.00019039900000000003
0.44268599999999997,-0.00024639800000000005
0.44053699999999996,-7.279968000000001e-05
0.438388,0.00044239800000000004
0.436239,-0.00022959800000000002
0.43409,-0.00013439900000000003
0.43194099999999996,0.000207199
0.429792,0.00019039900000000003
0.427643,-0.00026879800000000005
0.425494,-8.959960800000002e-05
0.42334499999999997,0.00043119800000000004
0.42119599999999996,-0.00023519800000000002
0.419047,-0.000145599
0.416898,0.00019039900000000003
0.414749,0.00019039900000000003
0.41259999999999997,-0.000291198
0.41045099999999995,-9.5199592e-05
0.408302,0.00043119800000000004
0.406153,-0.000218399
0.404004,-0.000139999
0.40185499999999996,0.000195999
0.399706,0.000195999
0.397557,-0.000296798
0.39540899999999995,-0.00012319900000000002
0.39326,0.00039759800000000004
0.391111,-0.000223999
0.388962,-0.00016239900000000003
0.38681299999999996,0.00019039900000000003
0.384664,0.000251998
0.382515,-0.00024639800000000005
0.380366,-5.5999756000000005e-05
0.37821699999999997,0.00044239800000000004
0.37606799999999996,-0.00021279900000000003
0.373919,-0.00016239900000000003
0.37177,0.000167999
0.369621,0.00022959800000000002
0.36747199999999997,-0.000296798
0.365323,-0.00010639900000000001
0.363174,0.00041999800000000004
0.361025,-0.000207199
0.358876,-0.00015119900000000003
0.35672699999999996,0.00016239900000000003
0.354578,0.00024639800000000005
0.352429,-0.000279998
0.35028,-9.5199592e-05
0.34813099999999997,0.00043119800000000004
0.345982,-0.000184799
0.343833,-0.00015119900000000003
0.341684,0.000145599
0.339536,0.00024639800000000005
0.337387,-0.000296798
0.335238,-0.00011199900000000001
0.33308899999999997,0.00041999800000000004
0.33094,-0.00019039900000000003
0.328791,-0.00015119900000000003
0.326642,0.000139999
0.324493,0.000251998
0.32234399999999996,-0.00030239800000000005
0.320195,-0.00011199900000000001
0.318046,0.000414398
0.315897,-0.000179199
0.31374799999999997,-0.000156799
0.31159899999999996,0.00013439900000000003
0.30945,0.00026879800000000005
0.307301,-0.000296798
0.305152,-0.00011759900000000001
0.30300299999999997,0.000414398
0.300854,-0.00017359900000000003
0.298705,-0.000179199
0.296556,0.00012319900000000002
0.294407,0.000279998
0.29225799999999996,-0.00030799800000000003
0.290109,-0.00011199900000000001
0.28796,0.000391998
0.285811,-0.00017359900000000003
0.283663,-0.000167999
0.281514,9.5199592e-05
0.279365,0.00024639800000000005
0.27721599999999996,-0.000358398
0.275067,-0.00017359900000000003
0.272918,0.00038079800000000006
0.270769,-0.000179199
0.26861999999999997,-0.000179199
0.266471,0.00010639900000000001
0.264322,0.000313598
0.262173,-0.000296798
0.260024,-8.959960800000002e-05
0.25787499999999997,0.000447998
0.255726,-0.00010079900000000001
0.253577,-0.000128799
0.251428,0.00012319900000000002
0.249279,0.000335998
0.24713,-0.000285598
0.24498099999999998,-0.00010079900000000001
0.242832,0.00042559800000000007
0.24068299999999998,-0.00010639900000000001
0.238534,-0.00016239900000000003
0.23638499999999998,0.00010079900000000001
0.234236,0.000330398
0.232087,-0.000291198
0.22993799999999998,-0.00010079900000000001
0.227789,0.000414398
0.22564099999999998,-0.00011759900000000001
0.223492,-0.00016239900000000003
0.22134299999999998,8.3999632e-05
0.219194,0.00032479800000000006
0.217045,-0.000313598
0.214896,-0.00012319900000000002
0.212747,0.000391998
0.21059799999999998,-0.00010639900000000001
0.208449,-0.000167999
0.20629999999999998,7.839966400000001e-05
0.204151,0.00034159800000000003
0.202002,-0.00030799800000000003
0.199853,-0.00012319900000000002
0.197704,0.00038639800000000004
0.19555499999999998,-9.5199592e-05
0.193406,-0.00017359900000000003
0.19125699999999998,6.159973199999999e-05
0.189108,0.00034719800000000006
0.186959,-0.00030799800000000003
0.18481,-0.000128799
0.182661,0.000369598
0.18051199999999998,-8.959960800000002e-05
0.178363,-0.000184799
0.17621399999999998,5.0399780000000004e-05
0.174065,0.000335998
0.17191599999999999,-0.00031919800000000003
0.169768,-0.000167999
0.167619,0.000335998
0.16547,-0.00010079900000000001
0.163321,-0.000207199
0.16117199999999998,2.2399902000000004e-05
0.159023,0.000285598
0.15687399999999999,-0.00034159800000000003
0.154725,-0.000145599
0.152576,0.00038639800000000004
0.150427,-5.0399780000000004e-05
0.148278,-0.00017359900000000003
0.14612899999999998,5.0399780000000004e-05
0.14398,0.00039759800000000004
0.14183099999999998,-0.000285598
0.139682,-0.00011199900000000001
0.137533,0.00036399800000000003
0.135384,-3.9199832000000005e-05
0.133235,-0.00016239900000000003
0.13108599999999998,5.0399780000000004e-05
0.128937,0.000391998
0.12678799999999998,-0.00030239800000000005
0.124639,-0.00011199900000000001
0.12248999999999999,0.000391998
0.12034099999999999,-1.6799928e-05
0.11819199999999999,-0.000179199
0.116043,3.9199832000000005e-05
0.113894,0.00040319800000000007
0.111746,-0.000291198
0.109597,-0.00012319900000000002
0.107448,0.00034159800000000003
0.10529899999999999,-2.7999878000000003e-05
0.10314999999999999,-0.000195999
0.101001,1.1199951000000002e-05
0.098852256,0.000391998
0.09670329600000001,-0.00030239800000000005
0.094554336,-0.000128799
0.092405368,0.00034719800000000006
0.09025640800000001,5.5999750000000005e-06
0.088107448,-0.000195999
0.08595848,-1.1199951000000002e-05
0.08380952800000001,0.000391998
0.08166056000000001,-0.00030799800000000003
0.0795116,-0.00013439900000000003
0.077362632,0.000330398
0.07521367200000001,0.0
0.073064712,-0.000218399
0.070915752,-2.2399902000000004e-05
0.068766784,0.00038079800000000006
0.066617824,-0.000335998
0.06446886,-0.000218399
0.062319900000000004,0.000291198
0.060170940000000006,0.0
0.058021976,-0.000223999
0.055873016000000005,-5.5999750000000005e-06
0.053724056000000006,0.00041999800000000004
0.051575092,-0.000285598
0.049426128,-0.00011759900000000001
0.047277168,0.00032479800000000006
0.045128204000000005,2.2399902000000004e-05
0.04297924,-0.00023519800000000002
0.040830280000000004,-2.7999878000000003e-05
0.038681316,0.00038079800000000006
0.036532356,-0.00035279800000000003
0.034383392,-0.000195999
0.03223443,0.00026879800000000005
0.030085470000000003,3.3599856e-05
0.027936508000000002,-0.00023519800000000002
0.025787546,-2.2399902000000004e-05
0.023638584,0.000447998
0.02148962,-0.000291198
0.019340658,-0.000128799
0.017191696,0.00032479800000000006
0.015042735000000002,0.00010079900000000001
0.012893773,-0.000184799
0.01074481,5.5999750000000005e-06
0.008595848,0.00044239800000000004
0.006446886000000001,-0.000279998
0.004297924,-0.000128799
0.002148962,0.000285598
0.0,7.279968000000001e-05
