Potential (V),Current (µA)
-0.199853,-0.05599975200000001
-0.19877799999999998,-0.04199981600000001
-0.197704,-0.04199981600000001
-0.19663,-0.034999844
-0.19555499999999998,-0.013999938000000002
-0.194481,-0.020999908000000005
-0.193406,-0.013999938000000002
-0.192332,-0.006999969000000001
-0.19125699999999998,-0.010499954000000002
-0.190183,-0.0034999840000000003
-0.189108,-0.006999969000000001
-0.18803399999999998,-0.008749961
-0.186959,0.0017499920000000001
-0.185885,-0.0026249880000000004
-0.18481,-0.013999938000000002
-0.18373599999999998,0.007874965
-0.182661,-0.0008749960000000001
-0.181587,-0.010499954000000002
-0.18051199999999998,0.006999969000000001
-0.179438,0.0010937450000000001
-0.178363,-0.0026249880000000004
-0.177289,0.0006562470000000001
-0.17621399999999998,-0.00043749800000000003
-0.17514,0.001859366
-0.174065,-0.001310394
-0.172991,-0.001808792
-0.17191599999999999,0.001903991
-0.170842,-0.0007783960000000001
-0.169768,-0.0007615960000000001
-0.16869299999999998,0.0012935940000000001
-0.167619,-0.000834396
-0.166544,0.0006943960000000001
-0.16547,0.000145599
-0.16439499999999999,-0.001075195
-0.163321,0.0017023920000000003
-0.162246,-0.0006159970000000001
-0.16117199999999998,-0.0014951930000000001
-0.160097,0.0020327910000000004
-0.159023,-0.000744796
-0.157948,-0.0016015930000000001
-0.15687399999999999,0.001982391
-0.155799,-0.000716796
-0.154725,-0.000660797
-0.15364999999999998,0.001310394
-0.152576,-0.0007951960000000001
-0.151501,0.000800796
-0.150427,0.000145599
-0.14935199999999998,-0.001041595
-0.148278,0.001775192
-0.147203,-0.0005935970000000001
-0.14612899999999998,-0.0014895930000000002
-0.145054,0.0020607900000000003
-0.14398,-0.000722396
-0.142905,-0.0015623930000000002
-0.14183099999999998,0.001982391
-0.140757,-0.000699996
-0.139682,-0.000587997
-0.13860799999999998,0.001265594
-0.137533,-0.000800796
-0.136459,0.0009071960000000001
-0.135384,0.000156799
-0.13430999999999998,-0.0009743950000000001
-0.133235,0.0018871910000000003
-0.132161,-0.000543197
-0.13108599999999998,-0.0014335930000000002
-0.130012,0.00212799
-0.128937,-0.000677597
-0.127863,-0.001528793
-0.12678799999999998,0.0019431910000000001
-0.125714,-0.000744796
-0.124639,-0.0005711970000000001
-0.123565,0.001147995
-0.12248999999999999,-0.000828796
-0.121416,0.000923995
-0.12034099999999999,2.2399902000000004e-05
-0.119267,-0.001097595
-0.11819199999999999,0.001808792
-0.117118,-0.0006383970000000001
-0.116043,-0.001534393
-0.11496899999999999,0.0020607900000000003
-0.113894,-0.0007335960000000001
-0.11281999999999999,-0.001534393
-0.111746,0.0019207910000000003
-0.11067099999999999,-0.000722396
-0.109597,-0.00046479700000000003
-0.108522,0.001147995
-0.107448,-0.000811996
-0.106373,0.0009855950000000001
-0.10529899999999999,2.2399902000000004e-05
-0.104224,-0.0010919950000000001
-0.10314999999999999,0.0018311920000000001
-0.102075,-0.0006383970000000001
-0.101001,-0.001528793
-0.099926736,0.0020663900000000004
-0.098852256,-0.000716796
-0.09777777600000001,-0.001500793
-0.09670329600000001,0.0019095910000000002
-0.095628816,-0.000716796
-0.094554336,-0.00042559800000000007
-0.093479848,0.0010919950000000001
-0.092405368,-0.000834396
-0.09133089600000001,0.0009967950000000002
-0.09025640800000001,-0.00010079900000000001
-0.08918192800000001,-0.001215194
-0.088107448,0.0017695920000000002
-0.087032968,-0.0007055960000000001
-0.08595848,-0.0016015930000000001
-0.084884,0.002010391
-0.08380952800000001,-0.000744796
-0.08273504000000001,-0.001478393
-0.08166056000000001,0.0018815910000000002
-0.08058607200000001,-0.0007279960000000001
-0.0795116,-0.000369598
-0.07843712,0.001041595
-0.077362632,-0.0008623960000000001
-0.07628816000000001,0.0010023950000000001
-0.07521367200000001,-8.959960800000002e-05
-0.074139192,-0.0011199950000000001
-0.073064712,0.0018703910000000001
-0.071990232,-0.000660797
-0.070915752,-0.001534393
-0.069841264,0.0020607900000000003
-0.068766784,-0.000699996
-0.067692312,-0.0014055930000000001
-0.066617824,0.001864791
-0.065543348,-0.0006831970000000001
-0.06446886,-0.000251998
-0.063394384,0.0010471950000000001
-0.062319900000000004,-0.000767196
-0.06124542,0.001164794
-0.060170940000000006,-3.3599856e-05
-0.05909646,-0.001024795
-0.058021976,0.0019599910000000003
-0.056947496,-0.000520797
-0.055873016000000005,-0.001321594
-0.054798532000000004,0.002407989
-0.053724056000000006,-0.00015119900000000003
-0.052649572000000006,-0.0006495970000000001
-0.051575092,0.0024583890000000005
-0.050500608,-6.7199712e-05
-0.049426128,0.000369598
-0.048351648000000004,0.0014895930000000002
-0.047277168,-0.000291198
-0.046202684,0.001623992
-0.045128204000000005,0.00020159900000000003
-0.044053724,-0.000946395
-0.04297924,0.001674392
-0.041904764000000004,-0.001237594
-0.040830280000000004,-0.003287185
-0.0397558,0.0013495940000000002
-0.038681316,-0.000128799
-0.037606836000000005,-0.000257598
-0.036532356,0.0028335870000000003
-0.035457876,0.000223999
-0.034383392,0.00038639800000000004
-0.033308912,0.001355194
-0.03223443,-0.000543197
-0.031159950000000002,0.0012095940000000003
-0.030085470000000003,-0.00022959800000000002
-0.029010988,-0.0012431940000000002
-0.027936508000000002,0.0015791930000000002
-0.026862028000000003,-0.0008623960000000001
-0.025787546,-0.0016855920000000003
-0.024713064,0.0017247920000000002
-0.023638584,-0.000895996
-0.022564102000000003,-0.0016015930000000001
-0.02148962,0.0014055930000000001
-0.020415140000000002,-0.0011367950000000001
-0.019340658,-0.000655197
-0.018266178,0.00034159800000000003
-0.017191696,-0.001254394
-0.016117215,0.0006663970000000001
-0.015042735000000002,-0.0006215970000000001
-0.013968254000000001,-0.001427993
-0.012893773,0.0014167930000000002
-0.011819292,-0.000979995
-0.01074481,-0.0018031920000000001
-0.009670329,0.0016295920000000002
-0.008595848,-0.0009351950000000001
-0.007521367,-0.001551193
-0.006446886000000001,0.001467193
-0.005372405,-0.0008791960000000001
-0.004297924,-0.00034719800000000006
-0.0032234430000000003,0.0006047970000000001
-0.002148962,-0.000968795
-0.001074481,0.0009519950000000001
0.0,-0.000414398
0.001074481,-0.0012767940000000001
0.002148962,0.001618392
0.0032234430000000003,-0.0008231960000000001
0.004297924,-0.001668792
0.005372405,0.0017863920000000001
0.006446886000000001,-0.000811996
0.007521367,-0.001422393
0.008595848,0.0015399930000000001
0.009670329,-0.000789596
0.01074481,-0.00022959800000000002
0.011819292,0.0006663970000000001
0.012893773,-0.0008903960000000001
0.013968254000000001,0.001063995
0.015042735000000002,-0.00034159800000000003
0.016117215,-0.0012095940000000003
0.017191696,0.001707992
0.018266178,-0.0007727960000000001
0.019340658,-0.001623992
0.020415140000000002,0.0018423910000000003
0.02148962,-0.0007615960000000001
0.022564102000000003,-0.001343994
0.023638584,0.0015959930000000002
0.024713064,-0.0007335960000000001
0.025787546,-0.00015119900000000003
0.026862028000000003,0.000688796
0.027936508000000002,-0.0008511960000000001
0.029010988,0.0011423950000000003
0.030085470000000003,-0.000330398
0.031159950000000002,-0.001192794
0.03223443,0.001763992
0.033308912,-0.0007503960000000001
0.034383392,-0.0016071920000000001
0.035457876,0.0018871910000000003
0.036532356,-0.0007335960000000001
0.037606836000000005,-0.001327194
0.038681316,0.0016015930000000001
0.0397558,-0.000722396
0.040830280000000004,-8.959960800000002e-05
0.041904764000000004,0.0006831970000000001
0.04297924,-0.0008511960000000001
0.044053724,0.0011871940000000001
0.045128204000000005,-0.00034159800000000003
0.046202684,-0.0011871940000000001
0.047277168,0.0017975920000000002
0.048351648000000004,-0.0007335960000000001
0.049426128,-0.0015959930000000002
0.050500608,0.001903991
0.051575092,-0.000716796
0.052649572000000006,-0.0012991940000000003
0.053724056000000006,0.0016015930000000001
0.054798532000000004,-0.000744796
0.055873016000000005,-5.0399780000000004e-05
0.056947496,0.000655197
0.058021976,-0.0008511960000000001
0.05909646,0.001215194
0.060170940000000006,-0.00034719800000000006
0.06124542,-0.001198394
0.062319900000000004,0.0018031920000000001
0.063394384,-0.000739196
0.06446886,-0.0016015930000000001
0.065543348,0.0019151910000000001
0.066617824,-0.000716796
0.067692312,-0.0012823940000000003
0.068766784,0.0015959930000000002
0.069841264,-0.0007111960000000001
0.070915752,-5.5999750000000005e-06
0.071990232,0.000643997
0.073064712,-0.0008511960000000001
0.074139192,0.0012431940000000002
0.07521367200000001,-0.000358398
0.07628816000000001,-0.0012039940000000001
0.077362632,0.001808792
0.07843712,-0.000739196
0.0795116,-0.0016015930000000001
0.08058607200000001,0.0019207910000000003
0.08166056000000001,-0.0007055960000000001
0.08273504000000001,-0.001254394
0.08380952800000001,0.001590393
0.084884,-0.0007055960000000001
0.08595848,2.7999878000000003e-05
0.087032968,0.0006383970000000001
0.088107448,-0.000834396
0.08918192800000001,0.0012823940000000003
0.09025640800000001,-0.00038079800000000006
0.09133089600000001,-0.0012039940000000001
0.092405368,0.0018311920000000001
0.093479848,-0.000722396
0.094554336,-0.0016015930000000001
0.095628816,0.0019263910000000004
0.09670329600000001,-0.000699996
0.09777777600000001,-0.0012263940000000002
0.098852256,0.0015679930000000002
0.099926736,-0.0007055960000000001
0.101001,7.839966400000001e-05
0.102075,0.000599197
0.10314999999999999,-0.0008567960000000001
0.104224,0.0012991940000000003
0.10529899999999999,-0.00037519800000000004
0.106373,-0.0012095940000000003
0.107448,0.0018423910000000003
0.108522,-0.0007111960000000001
0.109597,-0.0015791930000000002
0.11067099999999999,0.0019431910000000001
0.111746,-0.0006831970000000001
0.11281999999999999,-0.0011871940000000001
0.113894,0.0015679930000000002
0.11496899999999999,-0.000699996
0.116043,0.00011759900000000001
0.117118,0.0005767970000000001
0.11819199999999999,-0.0008567960000000001
0.119267,0.0013327940000000002
0.12034099999999999,-0.00041999800000000004
0.121416,-0.001237594
0.12248999999999999,0.0018367910000000002
0.123565,-0.0007279960000000001
0.124639,-0.0016071920000000001
0.125714,0.0019151910000000001
0.12678799999999998,-0.000699996
0.127863,-0.001175994
0.128937,0.001534393
0.130012,-0.0007111960000000001
0.13108599999999998,0.000139999
0.132161,0.000537597
0.133235,-0.0008623960000000001
0.13430999999999998,0.001343994
0.135384,-0.000414398
0.136459,-0.0012431940000000002
0.137533,0.0018423910000000003
0.13860799999999998,-0.000722396
0.139682,-0.0016071920000000001
0.140757,0.0019095910000000002
0.14183099999999998,-0.0006943960000000001
0.142905,-0.001147995
0.14398,0.001511993
0.145054,-0.0007055960000000001
0.14612899999999998,0.000195999
0.147203,0.000498397
0.148278,-0.0008679960000000001
0.14935199999999998,0.001360794
0.150427,-0.00043119800000000004
0.151501,-0.0012319940000000001
0.152576,0.001847991
0.15364999999999998,-0.000716796
0.154725,-0.0015959930000000002
0.155799,0.001903991
0.15687399999999999,-0.000688796
0.157948,-0.0011031950000000002
0.159023,0.001483993
0.160097,-0.000699996
0.16117199999999998,0.00024079800000000002
0.162246,0.00046479700000000003
0.163321,-0.000873596
0.16439499999999999,0.001394393
0.16547,-0.00045359800000000004
0.166544,-0.001271194
0.167619,0.001847991
0.16869299999999998,-0.000716796
0.169768,-0.0015959930000000002
0.170842,0.001898391
0.17191599999999999,-0.0006831970000000001
0.172991,-0.001063995
0.174065,0.0014559930000000003
0.17514,-0.0007111960000000001
0.17621399999999998,0.000296798
0.177289,0.00042559800000000007
0.178363,-0.0008847960000000001
0.179438,0.0014167930000000002
0.18051199999999998,-0.00046479700000000003
0.181587,-0.0012767940000000001
0.182661,0.0018591910000000003
0.18373599999999998,-0.0007279960000000001
0.18481,-0.0015959930000000002
0.185885,0.001892791
0.186959,-0.0006831970000000001
0.18803399999999998,-0.001019195
0.189108,0.0014335930000000002
0.190183,-0.0007111960000000001
0.19125699999999998,0.000335998
0.192332,0.00038639800000000004
0.193406,-0.0008903960000000001
0.194481,0.001444793
0.19555499999999998,-0.00048719700000000003
0.19663,-0.0012935940000000001
0.197704,0.001864791
0.19877799999999998,-0.0007111960000000001
0.199853,-0.0015847930000000001
0.200927,0.001892791
0.202002,-0.000677597
0.20307599999999998,-0.0009855950000000001
0.204151,0.0014055930000000001
0.205225,-0.0007111960000000001
0.20629999999999998,0.00038639800000000004
0.207374,0.000358398
0.208449,-0.0009015960000000001
0.209523,0.001467193
0.21059799999999998,-0.000503997
0.211672,-0.001310394
0.212747,0.0018759910000000002
0.21382099999999998,-0.000716796
0.214896,-0.0015847930000000001
0.21597,0.001903991
0.217045,-0.000677597
0.21811899999999998,-0.000946395
0.219194,0.0013831930000000002
0.220268,-0.0007111960000000001
0.22134299999999998,0.000436798
0.222417,0.000313598
0.223492,-0.000912796
0.224566,0.0015063930000000002
0.22564099999999998,-0.000520797
0.226715,-0.001327194
0.227789,0.001892791
0.22886399999999998,-0.000722396
0.22993799999999998,-0.001590393
0.231013,0.001898391
0.232087,-0.000677597
0.23316199999999998,-0.000912796
0.234236,0.001360794
0.235311,-0.000716796
0.23638499999999998,0.000498397
0.23745999999999998,0.000279998
0.238534,-0.000923995
0.239609,0.0015455930000000003
0.24068299999999998,-0.0005487970000000001
0.241758,-0.0013495940000000002
0.242832,0.0019151910000000001
0.24390699999999998,-0.0007335960000000001
0.24498099999999998,-0.0015959930000000002
0.246056,0.001903991
0.24713,-0.0007055960000000001
0.24820499999999998,-0.0008903960000000001
0.249279,0.0013495940000000002
0.25035399999999997,-0.0007335960000000001
0.251428,0.0005263970000000001
0.252503,0.000257598
0.253577,-0.0009519950000000001
0.254652,0.001573593
0.255726,-0.0005711970000000001
0.2568,-0.0013831930000000002
0.25787499999999997,0.0019319909999999999
0.258949,-0.000739196
0.260024,-0.001618392
0.261098,0.0019151910000000001
0.262173,-0.000699996
0.263247,-0.0008567960000000001
0.264322,0.001327194
0.26539599999999997,-0.000739196
0.266471,0.000587997
0.267545,0.00021279900000000003
0.26861999999999997,-0.000968795
0.269694,0.0016127920000000003
0.270769,-0.000587997
0.271843,-0.0013999930000000002
0.272918,0.001954391
0.273992,-0.0007503960000000001
0.275067,-0.001618392
0.27614099999999997,0.0019207910000000003
0.27721599999999996,-0.0007055960000000001
0.27829,-0.000817596
0.279365,0.0013383940000000001
0.280439,-0.000744796
0.281514,0.0006383970000000001
0.282588,0.00017359900000000003
0.283663,-0.0009855950000000001
0.28473699999999996,0.0016519920000000001
0.285811,-0.000610397
0.286886,-0.001427993
0.28796,0.001976791
0.289035,-0.0007503960000000001
0.290109,-0.0016127920000000003
0.291184,0.0019263910000000004
0.29225799999999996,-0.0007111960000000001
0.293333,-0.0007783960000000001
0.294407,0.001287994
0.29548199999999997,-0.0007615960000000001
0.296556,0.000688796
0.297631,0.000145599
0.298705,-0.0010023950000000001
0.29978,0.0016799920000000002
0.300854,-0.000627197
0.301929,-0.0014559930000000003
0.30300299999999997,0.0019935910000000003
0.30407799999999996,-0.0007503960000000001
0.305152,-0.0016127920000000003
0.30622699999999997,0.0019319909999999999
0.307301,-0.0007111960000000001
0.308376,-0.000744796
0.30945,0.001265594
0.310525,-0.0007615960000000001
0.31159899999999996,0.0007335960000000001
0.312673,0.00010079900000000001
0.31374799999999997,-0.001019195
0.314822,0.0017023920000000003
0.315897,-0.000643997
0.316971,-0.001461593
0.318046,0.0019991910000000004
0.31911999999999996,-0.0007615960000000001
0.320195,-0.0016127920000000003
0.32126899999999997,0.0019263910000000004
0.32234399999999996,-0.000716796
0.323418,-0.0007111960000000001
0.324493,0.0012487940000000001
0.325567,-0.0007727960000000001
0.326642,0.0007727960000000001
0.327716,8.959960800000002e-05
0.328791,-0.0010303950000000001
0.32986499999999996,0.001730392
0.33094,-0.000655197
0.332014,-0.001478393
0.33308899999999997,0.002015991
0.334163,-0.000755996
0.335238,-0.0016071920000000001
0.336312,0.0019263910000000004
0.337387,-0.000716796
0.338461,-0.000677597
0.339536,0.001220794
0.34060999999999997,-0.0007783960000000001
0.341684,0.000789596
0.342759,7.279968000000001e-05
0.343833,-0.001007995
0.344908,0.0017415920000000001
0.345982,-0.000655197
0.347057,-0.001483993
0.34813099999999997,0.002010391
0.34920599999999996,-0.0007503960000000001
0.35028,-0.0015959930000000002
0.351355,0.0019151910000000001
0.352429,-0.000716796
0.353504,-0.000655197
0.354578,0.0012039940000000001
0.355653,-0.0007727960000000001
0.35672699999999996,0.0008231960000000001
0.357802,4.479980400000001e-05
0.358876,-0.001035995
0.35995099999999997,0.0017415920000000001
0.361025,-0.0006663970000000001
0.3621,-0.0014895930000000002
0.363174,0.002015991
0.364249,-0.0007503960000000001
0.365323,-0.0015847930000000001
0.366398,0.0019095910000000002
0.36747199999999997,-0.0007111960000000001
0.368546,-0.000627197
0.369621,0.0011871940000000001
0.370695,-0.0007783960000000001
0.37177,0.000828796
0.372844,3.9199832000000005e-05
0.373919,-0.001035995
0.37499299999999997,0.0017527920000000002
0.37606799999999996,-0.000688796
0.377142,-0.001500793
0.37821699999999997,0.002010391
0.379291,-0.0007503960000000001
0.380366,-0.0015847930000000001
0.38144,0.001903991
0.382515,-0.0007111960000000001
0.38358899999999996,-0.0006047970000000001
0.384664,0.001175994
0.38573799999999997,-0.0007783960000000001
0.38681299999999996,0.0008511960000000001
0.387887,2.2399902000000004e-05
0.388962,-0.0010471950000000001
0.390036,0.0017583920000000001
0.391111,-0.000671997
0.392185,-0.001500793
0.39326,0.002015991
0.39433399999999996,-0.0007503960000000001
0.39540899999999995,-0.0015679930000000002
0.396483,0.001903991
0.397557,-0.0007111960000000001
0.398632,-0.000587997
0.399706,0.001164794
0.400781,-0.000783996
0.40185499999999996,0.0008791960000000001
0.40292999999999995,-1.1199951000000002e-05
0.404004,-0.0010471950000000001
0.40507899999999997,0.0017695920000000002
0.406153,-0.0006831970000000001
0.407228,-0.0015063930000000002
0.408302,0.002043991
0.409377,-0.000744796
0.41045099999999995,-0.0015679930000000002
0.411526,0.001903991
0.41259999999999997,-0.0007111960000000001
0.41367499999999996,-0.000565597
0.414749,0.001147995
0.41582399999999997,-0.000783996
0.416898,0.000895996
0.417973,0.0
0.419047,-0.001063995
0.420122,0.0017863920000000001
0.42119599999999996,-0.0006831970000000001
0.422271,-0.0015231930000000002
0.42334499999999997,0.0020271910000000002
0.42441999999999996,-0.000744796
0.425494,-0.0015679930000000002
0.426568,0.001898391
0.427643,-0.000716796
0.42871699999999996,-0.000537597
0.429792,0.001131195
0.43086599999999997,-0.0007951960000000001
0.43194099999999996,0.0009295950000000001
0.433015,-2.2399902000000004e-05
0.43409,-0.001075195
0.435164,0.0018031920000000001
0.436239,-0.0006943960000000001
0.437313,-0.001534393
0.438388,0.0020383910000000005
0.43946199999999996,-0.000755996
0.44053699999999996,-0.0015791930000000002
0.441611,0.001898391
0.44268599999999997,-0.0007279960000000001
0.44376,-0.000531997
0.444835,0.0011255950000000003
0.445909,-0.000800796
0.446984,0.000946395
0.44805799999999996,-3.9199832000000005e-05
0.449133,-0.001080795
0.45020699999999997,0.001808792
0.45128199999999996,-0.000699996
0.452356,-0.0015455930000000003
0.45343,0.0020383910000000005
0.454505,-0.000755996
0.45557899999999996,-0.0015679930000000002
0.456654,0.001903991
0.45772799999999997,-0.000722396
0.45880299999999996,-0.000515197
0.459877,0.0011199950000000001
0.460952,-0.000800796
0.462026,0.000946395
0.463101,-3.9199832000000005e-05
0.464175,-0.001080795
0.46525,0.001819992
0.46632399999999996,-0.000699996
0.46739899999999995,-0.0015399930000000001
0.468473,0.002049591
0.46954799999999997,-0.000755996
0.470622,-0.0015567930000000001
0.471697,0.001903991
0.472771,-0.0007055960000000001
0.473846,-0.0004927970000000001
0.47491999999999995,0.001108795
0.475995,-0.000800796
0.47706899999999997,0.000963195
0.47814399999999996,-5.5999756000000005e-05
0.479218,-0.0010863950000000002
0.48029299999999997,0.001819992
0.481367,-0.000699996
0.48244099999999995,-0.0015455930000000003
0.483516,0.002049591
0.48458999999999997,-0.0007503960000000001
0.48566499999999996,-0.0015455930000000003
0.486739,0.0018871910000000003
0.48781399999999997,-0.000716796
0.488888,-0.000470397
0.489963,0.0010919950000000001
0.491037,-0.000800796
0.492112,0.0009967950000000002
0.49318599999999996,-7.279968000000001e-05
0.49426099999999995,-0.0010919950000000001
0.49533499999999997,0.001825592
0.49640999999999996,-0.000699996
0.497484,-0.001551193
0.498559,0.002043991
0.499633,-0.0007503960000000001
0.5007079999999999,-0.001534393
0.501782,0.0018759910000000002
0.502857,-0.000716796
0.503931,-0.00046479700000000003
0.505006,0.001075195
0.50608,-0.000811996
0.507155,0.000991195
0.5082289999999999,-7.839966400000001e-05
0.509304,-0.0010863950000000002
0.510378,0.001819992
0.511452,-0.000699996
0.512527,-0.0015455930000000003
0.513601,0.0020327910000000004
0.514676,-0.000744796
0.5157499999999999,-0.001528793
0.516825,0.0018703910000000001
0.517899,-0.0007111960000000001
0.5189739999999999,-0.000447998
0.520048,0.001063995
0.521123,-0.000800796
0.522197,0.0010023950000000001
0.523272,-8.959960800000002e-05
0.524346,-0.0010919950000000001
0.525421,0.001819992
0.5264949999999999,-0.0007055960000000001
0.52757,-0.001551193
0.528644,0.0020271910000000002
0.5297189999999999,-0.000744796
0.530793,-0.0015231930000000002
0.531868,0.0018535910000000001
0.532942,-0.000716796
0.534017,-0.00043119800000000004
0.535091,0.001041595
0.5361659999999999,-0.0007727960000000001
0.5372399999999999,0.001019195
0.538314,-8.959960800000002e-05
0.539389,-0.001097595
0.540463,0.0018143920000000002
0.541538,-0.000699996
0.542612,-0.001551193
0.5436869999999999,0.002015991
0.5447609999999999,-0.000739196
0.545836,-0.001511993
0.54691,0.0018423910000000003
0.5479849999999999,-0.0007055960000000001
0.549059,-0.000414398
0.550134,0.001024795
0.5512079999999999,-0.0007951960000000001
0.552283,0.0010135950000000002
0.553357,-0.00010079900000000001
0.5544319999999999,-0.0010919950000000001
0.5555059999999999,0.001808792
0.556581,-0.000699996
0.557655,-0.0015399930000000001
0.55873,0.002004791
0.559804,-0.0007335960000000001
0.560879,-0.001483993
0.5619529999999999,0.0018143920000000002
0.563028,-0.000699996
0.564102,-0.000408798
0.5651769999999999,0.0010135950000000002
0.566251,-0.0007951960000000001
0.567326,0.0010135950000000002
0.5684,-0.00013439900000000003
0.5694739999999999,-0.001097595
0.570549,0.0017975920000000002
0.571623,-0.000699996
0.5726979999999999,-0.0015399930000000001
0.573772,0.0019935910000000003
0.574847,-0.0007279960000000001
0.575921,-0.0014895930000000002
0.576996,0.0018143920000000002
0.57807,-0.000699996
0.579145,-0.000391998
0.5802189999999999,0.0009967950000000002
0.581294,-0.000789596
0.582368,0.001007995
0.5834429999999999,-0.00012319900000000002
0.584517,-0.0010863950000000002
0.585592,0.001791992
0.586666,-0.0006943960000000001
0.587741,-0.001534393
0.588815,0.001982391
0.58989,-0.000716796
0.5909639999999999,-0.001467193
0.592039,0.0017975920000000002
0.593113,-0.000688796
0.5941879999999999,-0.00036399800000000003
0.595262,0.000979995
0.596336,-0.0007783960000000001
0.597411,0.0010303950000000001
0.5984849999999999,-0.00011759900000000001
0.59956,-0.001075195
0.600634,0.001808792
0.6017089999999999,-0.0006663970000000001
0.602783,-0.001511993
0.603858,0.001976791
0.604932,-0.000699996
0.606007,-0.0014391930000000003
0.607081,0.0017863920000000001
0.6081559999999999,-0.0006831970000000001
0.6092299999999999,-0.000358398
0.610305,0.000963195
0.611379,-0.000783996
0.6124539999999999,0.001024795
0.613528,-0.00011759900000000001
0.614603,-0.001041595
0.6156769999999999,0.001819992
0.616752,-0.000599197
0.617826,-0.001394393
0.6189009999999999,0.0020943900000000002
0.6199749999999999,-0.000559997
0.62105,-0.001287994
0.622124,0.001954391
0.6231979999999999,-0.0004759970000000001
0.624273,-0.00015119900000000003
0.625347,0.0011255950000000003
0.6264219999999999,-0.000643997
0.6274959999999999,0.0011367950000000001
0.628571,-1.6799928e-05
0.629645,-0.0009743950000000001
0.63072,0.0018759910000000002
0.631794,-0.000632797
0.632869,-0.0015231930000000002
0.6339429999999999,0.001937591
0.635018,-0.0007783960000000001
0.636092,-0.001511993
0.6371669999999999,0.001707992
0.638241,-0.0008063960000000001
0.639316,-0.000599197
0.64039,0.0006383970000000001
0.641465,-0.001058395
0.642539,0.0008511960000000001
0.643614,-0.00021279900000000003
0.6446879999999999,-0.001108795
0.645763,0.0017863920000000001
0.646837,-0.000655197
0.6479119999999999,-0.0014727930000000002
0.648986,0.0020271910000000002
0.650061,-0.000671997
0.651135,-0.001411193
0.6522089999999999,0.0018367910000000002
0.653284,-0.0006663970000000001
0.654358,-0.000335998
0.6554329999999999,0.0009967950000000002
0.656507,-0.000789596
0.657582,0.001063995
0.658656,-0.00012319900000000002
0.659731,-0.001080795
0.660805,0.0018591910000000003
0.66188,-0.000677597
0.6629539999999999,-0.0015063930000000002
0.664029,0.00208319
0.665103,-0.000660797
0.6661779999999999,-0.001377593
0.667252,0.001948791
0.668327,-0.000610397
0.669401,-0.00024639800000000005
0.670476,0.001075195
0.67155,-0.0007503960000000001
0.6726249999999999,0.001147995
0.6736989999999999,-0.00011759900000000001
0.674774,-0.001097595
0.675848,0.0019207910000000003
0.6769229999999999,-0.000699996
0.677997,-0.0015455930000000003
0.679072,0.0020999900000000004
0.6801459999999999,-0.0007727960000000001
0.6812199999999999,-0.001500793
0.682295,0.0019095910000000002
0.683369,-0.000677597
0.6844439999999999,-0.00026879800000000005
0.685518,0.001063995
0.686593,-0.0007727960000000001
0.6876669999999999,0.001175994
0.688742,-0.00015119900000000003
0.689816,-0.0011423950000000003
0.6908909999999999,0.0019151910000000001
0.6919649999999999,-0.000817596
0.69304,-0.0016631920000000002
0.694114,0.002043991
0.695189,-0.0009071960000000001
0.696263,-0.001635192
0.697338,0.0017975920000000002
0.6984119999999999,-0.000873596
0.699487,-0.00041999800000000004
0.700561,0.000923995
0.7016359999999999,-0.000912796
0.70271,0.001108795
0.703785,-0.000279998
0.704859,-0.001254394
0.705934,0.001903991
0.707008,-0.000895996
0.708083,-0.0017247920000000002
0.7091569999999999,0.0020663900000000004
0.710231,-0.0009071960000000001
0.711306,-0.001618392
0.71238,0.0018367910000000002
0.713455,-0.0008511960000000001
0.714529,-0.00038079800000000006
0.715604,0.000923995
0.7166779999999999,-0.0008623960000000001
0.717753,0.0012319940000000001
0.718827,-0.00017359900000000003
0.7199019999999999,-0.001108795
0.720976,0.002043991
0.722051,-0.000767196
0.723125,-0.0016015930000000001
0.7242,0.0021839900000000002
0.725274,-0.000789596
0.726349,-0.001483993
0.7274229999999999,0.0019935910000000003
0.728498,-0.000632797
0.729572,-0.00016239900000000003
0.7306469999999999,0.001114395
0.731721,-0.0007503960000000001
0.732796,0.0012599940000000002
0.7338699999999999,-0.00013439900000000003
0.734945,-0.0010863950000000002
0.736019,0.002021591
0.737093,-0.0007335960000000001
0.7381679999999999,-0.0015623930000000002
0.739242,0.00216159
0.740317,-0.0007727960000000001
0.7413909999999999,-0.0014895930000000002
0.742466,0.001898391
0.74354,-0.000739196
0.7446149999999999,-0.00030239800000000005
0.7456889999999999,0.0009855950000000001
0.746764,-0.000845596
0.747838,0.001147995
0.7489129999999999,-0.000207199
0.749987,-0.001164794
0.751062,0.0019263910000000004
0.7521359999999999,-0.0008063960000000001
0.753211,-0.001635192
0.754285,0.0020943900000000002
0.7553599999999999,-0.0008231960000000001
0.7564339999999999,-0.0015399930000000001
0.757509,0.0018535910000000001
0.758583,-0.000789596
0.7596579999999999,-0.00034719800000000006
0.760732,0.0009351950000000001
0.761807,-0.0008903960000000001
0.7628809999999999,0.001114395
0.7639549999999999,-0.00023519800000000002
0.76503,-0.0011871940000000001
0.766104,0.0019151910000000001
0.7671789999999999,-0.000811996
0.768253,-0.001623992
0.769328,0.00210559
0.7704019999999999,-0.000811996
0.771477,-0.0015063930000000002
0.772551,0.0018759910000000002
0.7736259999999999,-0.000767196
0.7746999999999999,-0.000313598
0.775775,0.0009743950000000001
0.776849,-0.0008623960000000001
0.777924,0.0011703940000000002
0.778998,-0.000218399
0.780073,-0.001181594
0.7811469999999999,0.001937591
0.782222,-0.000817596
0.783296,-0.0016295920000000002
0.7843709999999999,0.00211119
0.785445,-0.000828796
0.78652,-0.001517593
0.787594,0.0018759910000000002
0.788669,-0.0007951960000000001
0.789743,-0.000313598
0.7908179999999999,0.000968795
0.7918919999999999,-0.0008903960000000001
0.792967,0.0011871940000000001
0.794041,-0.000223999
0.795115,-0.0012039940000000001
0.79619,0.001954391
0.797264,-0.0008399960000000001
0.7983389999999999,-0.001657592
0.7994129999999999,0.0021391900000000004
0.800488,-0.000845596
0.801562,-0.001528793
0.8026369999999999,0.001903991
0.803711,-0.0008063960000000001
0.804786,-0.00030799800000000003
0.8058599999999999,0.0009743950000000001
0.806935,-0.0009015960000000001
0.808009,0.001192794
0.8090839999999999,-0.00024079800000000002
0.8101579999999999,-0.0012095940000000003
0.811233,0.0019991910000000004
0.812307,-0.000834396
0.8133819999999999,-0.001657592
0.814456,0.0021727900000000004
0.815531,-0.000845596
0.8166049999999999,-0.001517593
0.81768,0.0019207910000000003
0.818754,-0.0008063960000000001
0.8198289999999999,-0.000279998
0.8209029999999999,0.000979995
0.821978,-0.000895996
0.823052,0.0012319940000000001
0.8241259999999999,-0.00023519800000000002
0.825201,-0.0012319940000000001
0.826275,0.0020271910000000002
0.8273499999999999,-0.0008231960000000001
0.8284239999999999,-0.001640792
0.829499,0.0022119900000000005
0.830573,-0.000811996
0.8316479999999999,-0.001478393
0.832722,0.0019655910000000005
0.833797,-0.000767196
0.8348709999999999,-0.000218399
0.835946,0.001019195
0.83702,-0.0008623960000000001
0.8380949999999999,0.001271194
0.8391689999999999,-0.00020159900000000003
0.840244,-0.001181594
0.841318,0.002055191
0.842393,-0.0008063960000000001
0.843467,-0.001635192
0.844542,0.00222319
0.8456159999999999,-0.000817596
0.846691,-0.001483993
0.847765,0.001954391
0.8488399999999999,-0.000789596
0.849914,-0.000218399
0.850988,0.0009967950000000002
0.852063,-0.0008791960000000001
0.8531369999999999,0.0012767940000000001
0.854212,-0.000223999
0.855286,-0.0012039940000000001
0.8563609999999999,0.0020663900000000004
0.857435,-0.0007951960000000001
0.85851,-0.0016463920000000002
0.859584,0.00222879
0.860659,-0.000828796
0.861733,-0.0014951930000000001
0.8628079999999999,0.0019655910000000005
0.8638819999999999,-0.000800796
0.864957,-0.00024639800000000005
0.866031,0.0010135950000000002
0.8671059999999999,-0.0008903960000000001
0.86818,0.001271194
0.869255,-0.00021279900000000003
0.8703289999999999,-0.0012039940000000001
0.871404,0.0020775900000000003
0.872478,-0.000817596
0.8735529999999999,-0.0016519920000000001
0.8746269999999999,0.00221759
0.875702,-0.000845596
0.876776,-0.001517593
0.8778499999999999,0.0019599910000000003
0.878925,-0.0008063960000000001
0.879999,-0.000274398
0.8810739999999999,0.0010135950000000002
0.8821479999999999,-0.0009071960000000001
0.883223,0.0012487940000000001
0.884297,-0.00021279900000000003
0.8853719999999999,-0.001220794
0.886446,0.0020663900000000004
0.887521,-0.000834396
0.8885949999999999,-0.001674392
0.88967,0.00222879
0.890744,-0.0008847960000000001
0.8918189999999999,-0.0015455930000000003
0.8928929999999999,0.0019599910000000003
0.893968,-0.0008231960000000001
0.895042,-0.000291198
0.8961169999999999,0.001024795
0.897191,-0.000912796
0.898266,0.0012487940000000001
0.8993399999999999,-0.000207199
0.900415,-0.001220794
0.901489,0.0020607900000000003
0.9025639999999999,-0.000828796
0.9036379999999999,-0.0016631920000000002
0.904713,0.00223439
0.905787,-0.000845596
0.9068609999999999,-0.0015231930000000002
0.907936,0.001971191
0.90901,-0.0008063960000000001
0.9100849999999999,-0.000285598
0.9111589999999999,0.001024795
0.912234,-0.0009071960000000001
0.913308,0.001237594
0.914383,-0.000223999
0.915457,-0.0012319940000000001
0.916532,0.002049591
0.9176059999999999,-0.000845596
0.918681,-0.0016799920000000002
0.919755,0.0022119900000000005
0.9208299999999999,-0.000873596
0.921904,-0.001528793
0.922979,0.001948791
0.924053,-0.000828796
0.925128,-0.000279998
0.926202,0.000991195
0.9272769999999999,-0.000923995
0.9283509999999999,0.001237594
0.929426,-0.00024079800000000002
0.9305,-0.0012431940000000002
0.9315749999999999,0.0020383910000000005
0.932649,-0.0008567960000000001
0.933724,-0.001691192
0.9347979999999999,0.00220079
0.9358719999999999,-0.000873596
0.936947,-0.001551193
0.938021,0.0019319909999999999
0.9390959999999999,-0.000834396
0.94017,-0.000291198
0.941245,0.000979995
0.9423189999999999,-0.0009351950000000001
0.943394,0.0012431940000000002
0.944468,-0.000257598
0.9455429999999999,-0.0012487940000000001
0.9466169999999999,0.0020383910000000005
0.947692,-0.0008567960000000001
0.948766,-0.001691192
0.9498409999999999,0.00218959
0.950915,-0.0008679960000000001
0.95199,-0.001528793
0.9530639999999999,0.0019151910000000001
0.954139,-0.000845596
0.955213,-0.00026879800000000005
0.9562879999999999,0.0009575950000000001
0.9573619999999999,-0.000923995
0.958437,0.0012487940000000001
0.959511,-0.000263198
0.9605859999999999,-0.0012487940000000001
0.96166,0.002043991
0.962735,-0.000845596
0.9638089999999999,-0.0016855920000000003
0.9648829999999999,0.00218959
0.965958,-0.0008567960000000001
0.967032,-0.001517593
0.9681069999999999,0.0019151910000000001
0.969181,-0.0008231960000000001
0.970256,-0.00022959800000000002
0.9713299999999999,0.000946395
0.972405,-0.000923995
0.973479,0.0012767940000000001
0.9745539999999999,-0.000263198
0.9756279999999999,-0.0012487940000000001
0.976703,0.002049591
0.977777,-0.000845596
0.9788519999999999,-0.001691192
0.979926,0.0022063900000000003
0.9810009999999999,-0.0008511960000000001
0.9820749999999999,-0.0015063930000000002
0.98315,0.0019207910000000003
0.984224,-0.000817596
0.9852989999999999,-0.00021279900000000003
0.9863729999999999,0.000968795
0.987448,-0.000923995
0.9885219999999999,0.001304794
0.989597,-0.000263198
0.990671,-0.001254394
0.991745,0.0020775900000000003
0.9928199999999999,-0.000834396
0.9938939999999999,-0.0016967920000000001
0.994969,0.00222879
0.9960429999999999,-0.000845596
0.997118,-0.0014951930000000001
0.998192,0.0019319909999999999
0.9992669999999999,-0.000817596
1.000341,-0.000179199
1.0014159999999999,0.000946395
1.0024899999999999,-0.000923995
1.003565,0.0013327940000000002
1.004639,-0.000274398
1.005714,-0.0012599940000000002
1.006788,0.0020999900000000004
1.007863,-0.000845596
1.008937,-0.001691192
1.010012,0.00222879
1.011086,-0.0008399960000000001
1.0121609999999999,-0.001467193
1.0132349999999999,0.0019207910000000003
1.01431,-0.000811996
1.015384,-0.00013439900000000003
1.016459,0.0009183950000000001
1.017533,-0.0009407950000000001
1.018608,0.0013495940000000002
1.019682,-0.00030799800000000003
1.020756,-0.001265594
1.021831,0.0020999900000000004
1.022905,-0.0008567960000000001
1.02398,-0.0017135920000000001
1.025054,0.00222319
1.0261289999999998,-0.0008567960000000001
1.0272029999999999,-0.0014727930000000002
1.028278,0.001903991
1.029352,-0.000828796
1.030427,-0.000128799
1.031501,0.0008623960000000001
1.032576,-0.0009407950000000001
1.03365,0.001371994
1.034725,-0.00034159800000000003
1.035799,-0.0012935940000000001
1.0368739999999999,0.0020943900000000002
1.0379479999999999,-0.000873596
1.039023,-0.001730392
1.040097,0.0022119900000000005
1.041172,-0.0008679960000000001
1.042246,-0.0014727930000000002
1.043321,0.0018759910000000002
1.044395,-0.000845596
1.04547,-0.00012319900000000002
1.046544,0.000845596
1.047618,-0.000963195
1.0486929999999999,0.001360794
1.049767,-0.000330398
1.050842,-0.0012991940000000003
1.0519159999999999,0.0020999900000000004
1.052991,-0.0008903960000000001
1.054065,-0.0017527920000000002
1.05514,0.00221759
1.056214,-0.0008847960000000001
1.057289,-0.0014951930000000001
1.058363,0.0018703910000000001
1.0594379999999999,-0.0008679960000000001
1.060512,-0.00011199900000000001
1.061587,0.000828796
1.0626609999999999,-0.000991195
1.063736,0.0013831930000000002
1.06481,-0.00038639800000000004
1.065885,-0.0013495940000000002
1.066959,0.00210559
1.068034,-0.0009295950000000001
1.069108,-0.001808792
1.0701829999999999,0.0022119900000000005
1.071257,-0.0009295950000000001
1.0723319999999998,-0.001528793
1.0734059999999999,0.001892791
1.074481,-0.0008623960000000001
1.075555,-6.7199712e-05
1.076629,0.000834396
1.077704,-0.0009855950000000001
1.078778,0.0014503930000000001
1.079853,-0.00038639800000000004
1.080927,-0.001343994
1.082002,0.0021671900000000003
1.083076,-0.0009071960000000001
1.0841509999999999,-0.001791992
1.0852249999999999,0.0022791900000000004
1.0863,-0.000873596
1.0873739999999998,-0.0014559930000000003
1.088449,0.001898391
1.089523,-0.0008567960000000001
1.090598,0.0
1.091672,0.0008063960000000001
1.092747,-0.000991195
1.093821,0.0014895930000000002
1.0948959999999999,-0.00040319800000000007
1.0959699999999999,-0.0013495940000000002
1.097045,0.0021783900000000005
1.0981189999999998,-0.000895996
1.099194,-0.0017807920000000002
1.100268,0.0022791900000000004
1.101343,-0.0008679960000000001
1.102417,-0.0014167930000000002
1.103492,0.001892791
1.104566,-0.0008511960000000001
1.1056409999999999,2.7999878000000003e-05
1.106715,0.000767196
1.107789,-0.0010023950000000001
1.1088639999999998,0.001511993
1.1099379999999999,-0.00042559800000000007
1.111013,-0.0013663940000000002
1.112087,0.00218959
1.113162,-0.0008847960000000001
1.114236,-0.0017583920000000001
1.115311,0.0022847900000000005
1.116385,-0.0008567960000000001
1.11746,-0.001394393
1.118534,0.0018759910000000002
1.1196089999999999,-0.000845596
1.1206829999999999,6.159973199999999e-05
1.121758,0.0007503960000000001
1.122832,-0.000991195
1.123907,0.0015455930000000003
1.124981,-0.00041999800000000004
1.126056,-0.0013495940000000002
1.12713,0.0022119900000000005
1.128205,-0.0008791960000000001
1.129279,-0.0017863920000000001
1.1303539999999999,0.00226239
1.1314279999999999,-0.000873596
1.132503,-0.0013999930000000002
1.133577,0.001847991
1.134652,-0.0008623960000000001
1.135726,8.3999632e-05
1.1368,0.000716796
1.137875,-0.001007995
1.138949,0.0015399930000000001
1.140024,-0.00045359800000000004
1.141098,-0.001377593
1.1421729999999999,0.00220079
1.143247,-0.0009015960000000001
1.1443219999999998,-0.0018031920000000001
1.1453959999999999,0.0022735900000000002
1.146471,-0.0008903960000000001
1.147545,-0.001394393
1.14862,0.0018535910000000001
1.149694,-0.0008567960000000001
1.150769,0.00010079900000000001
1.151843,0.000722396
1.1529179999999999,-0.001007995
1.153992,0.0015623930000000002
1.1550669999999998,-0.00045359800000000004
1.1561409999999999,-0.001394393
1.157216,0.0022063900000000003
1.15829,-0.000895996
1.159365,-0.001808792
1.160439,0.0022791900000000004
1.161514,-0.0008679960000000001
1.162588,-0.001377593
1.163663,0.001847991
1.164737,-0.0008567960000000001
1.165811,0.000128799
1.1668859999999999,0.0007055960000000001
1.1679599999999999,-0.001007995
1.169035,0.0015791930000000002
1.1701089999999998,-0.00045919700000000006
1.171184,-0.0013999930000000002
1.172258,0.00221759
1.173333,-0.0009071960000000001
1.174407,-0.0018143920000000002
1.175482,0.00229039
1.176556,-0.0008679960000000001
1.1776309999999999,-0.0013663940000000002
1.178705,0.0018759910000000002
1.17978,-0.0008567960000000001
1.1808539999999998,0.00016239900000000003
1.181929,0.0007055960000000001
1.183003,-0.0010135950000000002
1.184078,0.0016015930000000001
1.185152,-0.0004759970000000001
1.186227,-0.001411193
1.187301,0.00223439
1.1883759999999999,-0.0009015960000000001
1.18945,-0.0018143920000000002
1.190525,0.00229039
1.1915989999999999,-0.0008679960000000001
1.1926729999999999,-0.001360794
1.193748,0.001847991
1.194822,-0.0008623960000000001
1.195897,0.00016239900000000003
1.196971,0.0006943960000000001
1.198046,-0.001019195
1.19912,0.001618392
1.200195,-0.00048719700000000003
1.201269,-0.001422393
1.2023439999999999,0.0022399900000000003
1.2034179999999999,-0.000912796
1.204493,-0.001825592
1.205567,0.0023071890000000003
1.206642,-0.000873596
1.207716,-0.001343994
1.208791,0.0018367910000000002
1.209865,-0.0008679960000000001
1.21094,0.00019039900000000003
1.212014,0.0006495970000000001
1.2130889999999999,-0.001035995
1.2141629999999999,0.0016463920000000002
1.215238,-0.0005095970000000001
1.2163119999999998,-0.001444793
1.217387,0.0022511900000000006
1.218461,-0.0009183950000000001
1.219535,-0.001847991
1.22061,0.0023127890000000004
1.221684,-0.0008791960000000001
1.222759,-0.001327194
1.223833,0.0018367910000000002
1.2249079999999999,-0.000873596
1.225982,0.00024639800000000005
1.2270569999999998,0.000627197
1.2281309999999999,-0.0010471950000000001
1.229206,0.001674392
1.23028,-0.0005263970000000001
1.231355,-0.0014559930000000003
1.232429,0.00226239
1.233504,-0.0009183950000000001
1.234578,-0.0018591910000000003
1.235653,0.002318389
1.236727,-0.0008791960000000001
1.2378019999999998,-0.001321594
1.2388759999999999,0.001825592
1.239951,-0.0008791960000000001
1.241025,0.000257598
1.2421,0.000627197
1.243174,-0.0010303950000000001
1.244249,0.0017023920000000003
1.245323,-0.000537597
1.246397,-0.001461593
1.247472,0.0022791900000000004
1.248546,-0.000923995
1.2496209999999999,-0.0018591910000000003
1.250695,0.002329589
1.25177,-0.0008791960000000001
1.2528439999999998,-0.001304794
1.253919,0.001819992
1.254993,-0.0008847960000000001
1.256068,0.000296798
1.257142,0.000610397
1.258217,-0.001052795
1.259291,0.0017135920000000001
1.2603659999999999,-0.0005487970000000001
1.26144,-0.001483993
1.262515,0.00229039
1.2635889999999999,-0.0009295950000000001
1.264664,-0.0018759910000000002
1.265738,0.002329589
1.266813,-0.0008903960000000001
1.267887,-0.0012991940000000003
1.268962,0.0018143920000000002
1.270036,-0.0008903960000000001
1.2711109999999999,0.000313598
1.272185,0.000582397
1.273259,-0.0010695950000000002
1.2743339999999999,0.0017191920000000002
1.2754079999999999,-0.000565597
1.276483,-0.001517593
1.2775569999999998,0.00229039
1.278632,-0.0009351950000000001
1.279706,-0.0018871910000000003
1.280781,0.002329589
1.281855,-0.0008847960000000001
1.28293,-0.001287994
1.284004,0.0018031920000000001
1.2850789999999999,-0.0008903960000000001
1.2861529999999999,0.000330398
1.287228,0.000565597
1.2883019999999998,-0.001075195
1.289377,0.001747192
1.290451,-0.000582397
1.291526,-0.0015063930000000002
1.2926,0.0023071890000000003
1.293675,-0.0009407950000000001
1.294749,-0.0018871910000000003
1.2958239999999999,0.002335189
1.2968979999999999,-0.0008903960000000001
1.297973,-0.001265594
1.2990469999999998,0.0017975920000000002
1.300122,-0.000895996
1.301196,0.00036399800000000003
1.30227,0.000543197
1.303345,-0.0010863950000000002
1.304419,0.001763992
1.305494,-0.0005935970000000001
1.306568,-0.0014951930000000001
1.3076429999999999,0.002329589
1.308717,-0.0009351950000000001
1.3097919999999998,-0.0018871910000000003
1.3108659999999999,0.002335189
1.311941,-0.0008847960000000001
1.313015,-0.001237594
1.31409,0.0017695920000000002
1.315164,-0.000895996
1.316239,0.000414398
1.317313,0.000498397
1.318388,-0.0010919950000000001
1.319462,0.0017863920000000001
1.3205369999999998,-0.0006159970000000001
1.3216109999999999,-0.001528793
1.322686,0.002318389
1.32376,-0.0009351950000000001
1.324835,-0.0018871910000000003
1.325909,0.0023239890000000003
1.326984,-0.0008847960000000001
1.328058,-0.0012095940000000003
1.329133,0.0017415920000000001
1.330207,-0.000895996
1.331281,0.00044239800000000004
1.3323559999999999,0.0004759970000000001
1.33343,-0.0010919950000000001
1.3345049999999998,0.0018031920000000001
1.3355789999999998,-0.000632797
1.336654,-0.0015399930000000001
1.337728,0.0023071890000000003
1.338803,-0.0009519950000000001
1.339877,-0.001892791
1.340952,0.0023071890000000003
1.342026,-0.0008791960000000001
1.3431009999999999,-0.0011703940000000002
1.344175,0.0017191920000000002
1.3452499999999998,-0.000895996
1.3463239999999999,0.0004927970000000001
1.347399,0.00042559800000000007
1.348473,-0.0010863950000000002
1.349548,0.0018143920000000002
1.350622,-0.0006383970000000001
1.351697,-0.0015455930000000003
1.352771,0.0023127890000000004
1.3538459999999999,-0.000923995
1.35492,-0.0018759910000000002
1.3559949999999998,0.0023071890000000003
1.3570689999999999,-0.0008679960000000001
1.358144,-0.0011423950000000003
1.359218,0.0016967920000000001
1.360293,-0.000895996
1.361367,0.000515197
1.362441,0.00042559800000000007
1.363516,-0.0011031950000000002
1.36459,0.0018367910000000002
1.365665,-0.000655197
1.366739,-0.0015567930000000001
1.3678139999999999,0.0023127890000000004
1.3688879999999999,-0.000923995
1.369963,-0.0018703910000000001
1.3710369999999998,0.002329589
1.372112,-0.0008623960000000001
1.373186,-0.001108795
1.374261,0.0016855920000000003
1.375335,-0.000895996
1.37641,0.000559997
1.377484,0.00038639800000000004
1.3785589999999999,-0.001114395
1.3796329999999999,0.0018703910000000001
1.380708,-0.000671997
1.3817819999999998,-0.001573593
1.382857,0.0023239890000000003
1.383931,-0.000923995
1.385006,-0.0018703910000000001
1.38608,0.002301589
1.387155,-0.0008679960000000001
1.388229,-0.001080795
1.3893039999999999,0.0016519920000000001
1.390378,-0.000895996
1.3914529999999998,0.0006047970000000001
1.3925269999999998,0.00034719800000000006
1.3936009999999999,-0.0011199950000000001
1.394676,0.0018871910000000003
1.39575,-0.0006831970000000001
1.396825,-0.0015847930000000001
1.397899,0.002329589
1.398974,-0.000923995
1.400048,-0.0018703910000000001
1.401123,0.00229599
1.402197,-0.0008679960000000001
1.4032719999999999,-0.001063995
1.4043459999999999,0.001623992
1.405421,-0.000895996
1.4064949999999998,0.000643997
1.40757,0.00030799800000000003
1.408644,-0.001131195
1.409719,0.0019095910000000002
1.410793,-0.0007055960000000001
1.411868,-0.0016015930000000001
1.412942,0.0023407890000000002
1.4140169999999999,-0.0009295950000000001
1.4150909999999999,-0.0018759910000000002
1.416166,0.00229039
1.4172399999999998,-0.0008679960000000001
1.418315,-0.0010135950000000002
1.419389,0.0016071920000000001
1.420463,-0.0009071960000000001
1.421538,0.0006831970000000001
1.422612,0.000291198
1.423687,-0.0011423950000000003
1.424761,0.0019319909999999999
1.4258359999999999,-0.0007111960000000001
1.42691,-0.0016127920000000003
1.4279849999999998,0.0023519890000000005
1.4290589999999999,-0.0009295950000000001
1.430134,-0.0018759910000000002
1.431208,0.002301589
1.432283,-0.000873596
1.433357,-0.0010023950000000001
1.434432,0.0016071920000000001
1.435506,-0.0008903960000000001
1.4365809999999999,0.0007111960000000001
1.437655,0.000279998
1.4387299999999998,-0.0011423950000000003
1.4398039999999999,0.001948791
1.440879,-0.0007111960000000001
1.441953,-0.001618392
1.443028,0.002363189
1.444102,-0.000923995
1.445177,-0.0018703910000000001
1.446251,0.002301589
1.447325,-0.0008679960000000001
1.4484,-0.0009743950000000001
1.449474,0.0015959930000000002
1.4505489999999999,-0.0009071960000000001
1.4516229999999999,0.0007503960000000001
1.452698,0.000257598
1.4537719999999998,-0.001147995
1.454847,0.001976791
1.455921,-0.0007335960000000001
1.456996,-0.001635192
1.45807,0.0023799890000000003
1.459145,-0.0009295950000000001
1.460219,-0.0018759910000000002
1.4612939999999999,0.0023071890000000003
1.462368,-0.000873596
1.4634429999999998,-0.000946395
1.4645169999999998,0.0015679930000000002
1.465592,-0.0009183950000000001
1.466666,0.000783996
1.467741,0.000223999
1.468815,-0.001198394
1.46989,0.0019935910000000003
1.470964,-0.0007615960000000001
1.4720389999999999,-0.001668792
1.473113,0.002391189
1.474187,-0.0009407950000000001
1.4752619999999999,-0.001892791
1.4763359999999999,0.0023071890000000003
1.477411,-0.0008847960000000001
1.4784849999999998,-0.0009183950000000001
1.47956,0.0015567930000000001
1.480634,-0.0009295950000000001
1.481709,0.000828796
1.482783,0.00019039900000000003
1.483858,-0.0011871940000000001
1.484932,0.0020271910000000002
1.4860069999999999,-0.000767196
1.4870809999999999,-0.0016799920000000002
1.488156,0.002402389
1.4892299999999998,-0.0009407950000000001
1.490305,-0.0018871910000000003
1.491379,0.002318389
1.492454,-0.0008847960000000001
1.493528,-0.000895996
1.494603,0.0015455930000000003
1.495677,-0.0009351950000000001
1.4967519999999999,0.0008511960000000001
1.4978259999999999,0.00017359900000000003
1.498901,-0.001198394
1.4999749999999998,0.00207199
1.498901,-0.0007727960000000001
1.4978259999999999,-0.001691192
1.4967519999999999,0.002407989
1.495677,-0.0009519950000000001
1.494603,-0.0018759910000000002
1.493528,0.002318389
1.492454,-0.0008903960000000001
1.491379,-0.000873596
1.490305,0.0015231930000000002
1.4892299999999998,-0.0009407950000000001
1.488156,0.0008847960000000001
1.4870809999999999,0.000145599
1.4860069999999999,-0.0012095940000000003
1.484932,0.0020663900000000004
1.483858,-0.000789596
1.482783,-0.0017023920000000003
1.481709,0.0024191890000000004
1.480634,-0.0009351950000000001
1.47956,-0.0018703910000000001
1.4784849999999998,0.0023071890000000003
1.477411,-0.000873596
1.4763359999999999,-0.000828796
1.4752619999999999,0.0014951930000000001
1.474187,-0.0009351950000000001
1.473113,0.000923995
1.4720389999999999,0.00011759900000000001
1.470964,-0.0012039940000000001
1.46989,0.0020663900000000004
1.468815,-0.0007951960000000001
1.467741,-0.0017135920000000001
1.466666,0.002391189
1.465592,-0.0009295950000000001
1.4645169999999998,-0.001847991
1.4634429999999998,0.00226799
1.462368,-0.000873596
1.4612939999999999,-0.000789596
1.460219,0.0014559930000000003
1.459145,-0.0009351950000000001
1.45807,0.000923995
1.456996,0.00010079900000000001
1.455921,-0.0012095940000000003
1.454847,0.002055191
1.4537719999999998,-0.0007951960000000001
1.452698,-0.0017023920000000003
1.4516229999999999,0.002374389
1.4505489999999999,-0.0009295950000000001
1.449474,-0.0018423910000000003
1.4484,0.0022511900000000006
1.447325,-0.000873596
1.446251,-0.000783996
1.445177,0.0014335930000000002
1.444102,-0.0009351950000000001
1.443028,0.0009519950000000001
1.441953,7.279968000000001e-05
1.440879,-0.001215194
1.4398039999999999,0.002055191
1.4387299999999998,-0.000800796
1.437655,-0.001707992
1.4365809999999999,0.002396789
1.435506,-0.0009071960000000001
1.434432,-0.001819992
1.433357,0.00223439
1.432283,-0.0008679960000000001
1.431208,-0.000739196
1.430134,0.0013999930000000002
1.4290589999999999,-0.0009351950000000001
1.4279849999999998,0.000968795
1.42691,3.9199832000000005e-05
1.4258359999999999,-0.001220794
1.424761,0.0020607900000000003
1.423687,-0.000811996
1.422612,-0.0017191920000000002
1.421538,0.0023519890000000005
1.420463,-0.000923995
1.419389,-0.001808792
1.418315,0.0022063900000000003
1.4172399999999998,-0.000873596
1.416166,-0.0007111960000000001
1.4150909999999999,0.001371994
1.4140169999999999,-0.0009351950000000001
1.412942,0.000979995
1.411868,2.7999878000000003e-05
1.410793,-0.001220794
1.409719,0.002055191
1.408644,-0.000811996
1.40757,-0.001707992
1.4064949999999998,0.0023407890000000002
1.405421,-0.0009071960000000001
1.4043459999999999,-0.0018143920000000002
1.4032719999999999,0.0021783900000000005
1.402197,-0.0008623960000000001
1.401123,-0.000677597
1.400048,0.0013383940000000001
1.398974,-0.0009295950000000001
1.397899,0.0010135950000000002
1.396825,5.5999750000000005e-06
1.39575,-0.0012095940000000003
1.394676,0.002043991
1.3936009999999999,-0.0007951960000000001
1.3925269999999998,-0.001691192
1.3914529999999998,0.002318389
1.390378,-0.0008903960000000001
1.3893039999999999,-0.001747192
1.388229,0.00216159
1.387155,-0.0008399960000000001
1.38608,-0.0006215970000000001
1.385006,0.0013159940000000002
1.383931,-0.000912796
1.382857,0.0010303950000000001
1.3817819999999998,0.0
1.380708,-0.001198394
1.3796329999999999,0.002049591
1.3785589999999999,-0.000783996
1.377484,-0.001674392
1.37641,0.0023071890000000003
1.375335,-0.0008679960000000001
1.374261,-0.0017135920000000001
1.373186,0.00215039
1.372112,-0.0007951960000000001
1.3710369999999998,-0.000543197
1.369963,0.0013495940000000002
1.3688879999999999,-0.000800796
1.3678139999999999,0.0011367950000000001
1.366739,2.7999878000000003e-05
1.365665,-0.0011703940000000002
1.36459,0.0020327910000000004
1.363516,-0.0007503960000000001
1.362441,-0.001618392
1.361367,0.002318389
1.360293,-0.000811996
1.359218,-0.001635192
1.358144,0.00210559
1.3570689999999999,-0.000800796
1.3559949999999998,-0.000520797
1.35492,0.001220794
1.3538459999999999,-0.0008903960000000001
1.352771,0.0010863950000000002
1.351697,-6.7199712e-05
1.350622,-0.001215194
1.349548,0.002010391
1.348473,-0.000811996
1.347399,-0.0016967920000000001
1.3463239999999999,0.0022399900000000003
1.3452499999999998,-0.000895996
1.344175,-0.0017135920000000001
1.3431009999999999,0.0020327910000000004
1.342026,-0.0008791960000000001
1.340952,-0.000531997
1.339877,0.0011535940000000002
1.338803,-0.0009743950000000001
1.337728,0.0010919950000000001
1.336654,-0.000128799
1.3355789999999998,-0.0012487940000000001
1.3345049999999998,0.0020775900000000003
1.33343,-0.0008063960000000001
1.3323559999999999,-0.001691192
1.331281,0.0023127890000000004
1.330207,-0.0008399960000000001
1.329133,-0.001640792
1.328058,0.0020999900000000004
1.326984,-0.000811996
1.325909,-0.00042559800000000007
1.324835,0.001164794
1.32376,-0.000923995
1.322686,0.001164794
1.3216109999999999,-0.00013439900000000003
1.3205369999999998,-0.0012487940000000001
1.319462,0.0020607900000000003
1.318388,-0.0008399960000000001
1.317313,-0.001747192
1.316239,0.00225679
1.315164,-0.000895996
1.31409,-0.0016799920000000002
1.313015,0.0020327910000000004
1.311941,-0.000873596
1.3108659999999999,-0.00043119800000000004
1.3097919999999998,0.0010919950000000001
1.308717,-0.000946395
1.3076429999999999,0.0012431940000000002
1.306568,-0.00015119900000000003
1.305494,-0.001237594
1.304419,0.00211679
1.303345,-0.0008063960000000001
1.30227,-0.0016967920000000001
1.301196,0.0023127890000000004
1.300122,-0.0008399960000000001
1.2990469999999998,-0.001590393
1.297973,0.0020607900000000003
1.2968979999999999,-0.000811996
1.2958239999999999,-0.000330398
1.294749,0.0010919950000000001
1.293675,-0.0009295950000000001
1.2926,0.0012487940000000001
1.291526,-0.00019039900000000003
1.290451,-0.001271194
1.289377,0.00208879
1.2883019999999998,-0.000845596
1.287228,-0.0017527920000000002
1.2861529999999999,0.00226799
1.2850789999999999,-0.0008847960000000001
1.284004,-0.0016295920000000002
1.28293,0.002010391
1.281855,-0.0008623960000000001
1.280781,-0.000330398
1.279706,0.0010303950000000001
1.278632,-0.000963195
1.2775569999999998,0.001271194
1.276483,-0.00022959800000000002
1.2754079999999999,-0.001310394
1.2743339999999999,0.00211119
1.273259,-0.000845596
1.272185,-0.0017583920000000001
1.2711109999999999,0.002301589
1.270036,-0.0008511960000000001
1.268962,-0.0015791930000000002
1.267887,0.002021591
1.266813,-0.000834396
1.265738,-0.000257598
1.264664,0.001019195
1.2635889999999999,-0.0009519950000000001
1.262515,0.001310394
1.26144,-0.000263198
1.2603659999999999,-0.001310394
1.259291,0.00212799
1.258217,-0.000873596
1.257142,-0.001791992
1.256068,0.00229039
1.254993,-0.0008903960000000001
1.253919,-0.0016071920000000001
1.2528439999999998,0.002004791
1.25177,-0.0008679960000000001
1.250695,-0.00022959800000000002
1.2496209999999999,0.000979995
1.248546,-0.000979995
1.247472,0.0013663940000000002
1.246397,-0.000285598
1.245323,-0.001343994
1.244249,0.0021727900000000004
1.243174,-0.0008623960000000001
1.2421,-0.0018031920000000001
1.241025,0.002335189
1.239951,-0.0008791960000000001
1.2388759999999999,-0.0015791930000000002
1.2378019999999998,0.002021591
1.236727,-0.0008567960000000001
1.235653,-0.00016239900000000003
1.234578,0.0009575950000000001
1.233504,-0.0009855950000000001
1.232429,0.0014167930000000002
1.231355,-0.00030799800000000003
1.23028,-0.001343994
1.229206,0.00220079
1.2281309999999999,-0.0008791960000000001
1.2270569999999998,-0.001808792
1.225982,0.0023463890000000004
1.2249079999999999,-0.0008623960000000001
1.223833,-0.001517593
1.222759,0.002055191
1.221684,-0.0007727960000000001
1.22061,-4.479980400000001e-05
1.219535,0.0009855950000000001
1.218461,-0.000923995
1.217387,0.0014559930000000003
1.2163119999999998,-0.000296798
1.215238,-0.001310394
1.2141629999999999,0.0021839900000000002
1.2130889999999999,-0.0008511960000000001
1.212014,-0.0017807920000000002
1.21094,0.0022847900000000005
1.209865,-0.0008623960000000001
1.208791,-0.0015063930000000002
1.207716,0.001948791
1.206642,-0.000834396
1.205567,-8.959960800000002e-05
1.204493,0.000895996
1.2034179999999999,-0.000963195
1.2023439999999999,0.001427993
1.201269,-0.00032479800000000006
1.200195,-0.001321594
1.19912,0.00215599
1.198046,-0.0008511960000000001
1.196971,-0.0017695920000000002
1.195897,0.0022735900000000002
1.194822,-0.0008399960000000001
1.193748,-0.0014727930000000002
1.1926729999999999,0.0019263910000000004
1.1915989999999999,-0.000828796
1.190525,-6.7199712e-05
1.18945,0.0008511960000000001
1.1883759999999999,-0.000968795
1.187301,0.0014335930000000002
1.186227,-0.00035279800000000003
1.185152,-0.001327194
1.184078,0.00214479
1.183003,-0.0008567960000000001
1.181929,-0.0017527920000000002
1.1808539999999998,0.0022455900000000004
1.17978,-0.0008231960000000001
1.178705,-0.0014335930000000002
1.1776309999999999,0.001903991
1.176556,-0.000828796
1.175482,-3.9199832000000005e-05
1.174407,0.0008399960000000001
1.173333,-0.000963195
1.172258,0.0014335930000000002
1.171184,-0.000358398
1.1701089999999998,-0.0013327940000000002
1.169035,0.0021335900000000003
1.1679599999999999,-0.0008511960000000001
1.1668859999999999,-0.001763992
1.165811,0.0022399900000000003
1.164737,-0.000834396
1.163663,-0.0014391930000000003
1.162588,0.0018815910000000002
1.161514,-0.0008231960000000001
1.160439,-2.2399902000000004e-05
1.159365,0.0008231960000000001
1.15829,-0.0009575950000000001
1.157216,0.0014391930000000003
1.1561409999999999,-0.000358398
1.1550669999999998,-0.001327194
1.153992,0.00212239
1.1529179999999999,-0.000845596
1.151843,-0.0017583920000000001
1.150769,0.00222879
1.149694,-0.000828796
1.14862,-0.001422393
1.147545,0.001847991
1.146471,-0.0008231960000000001
1.1453959999999999,-2.7999878000000003e-05
1.1443219999999998,0.000800796
1.143247,-0.0009575950000000001
1.1421729999999999,0.001444793
1.141098,-0.00037519800000000004
1.140024,-0.001327194
1.138949,0.00211679
1.137875,-0.000845596
1.1368,-0.0017527920000000002
1.135726,0.00222319
1.134652,-0.000828796
1.133577,-0.0013999930000000002
1.132503,0.0018535910000000001
1.1314279999999999,-0.0008231960000000001
1.1303539999999999,1.6799928e-05
1.129279,0.0007783960000000001
1.128205,-0.000963195
1.12713,0.0014559930000000003
1.126056,-0.00038639800000000004
1.124981,-0.0013327940000000002
1.123907,0.00212239
1.122832,-0.000845596
1.121758,-0.0017527920000000002
1.1206829999999999,0.00221759
1.1196089999999999,-0.0008231960000000001
1.118534,-0.0013887930000000001
1.11746,0.0018423910000000003
1.116385,-0.000817596
1.115311,7.839966400000001e-05
1.114236,0.0007615960000000001
1.113162,-0.000963195
1.112087,0.001478393
1.111013,-0.00039759800000000004
1.1099379999999999,-0.001343994
1.1088639999999998,0.00212799
1.107789,-0.000845596
1.106715,-0.001763992
1.1056409999999999,0.00222319
1.104566,-0.000828796
1.103492,-0.001371994
1.102417,0.0018367910000000002
1.101343,-0.0008231960000000001
1.100268,6.7199712e-05
1.099194,0.000739196
1.0981189999999998,-0.000979995
1.097045,0.001517593
1.0959699999999999,-0.00041999800000000004
1.0948959999999999,-0.001360794
1.093821,0.00215599
1.092747,-0.0008567960000000001
1.091672,-0.0017863920000000001
1.090598,0.0022455900000000004
1.089523,-0.000834396
1.088449,-0.001360794
1.0873739999999998,0.0018311920000000001
1.0863,-0.0008399960000000001
1.0852249999999999,0.00011759900000000001
1.0841509999999999,0.0007055960000000001
1.083076,-0.001019195
1.082002,0.0015455930000000003
1.080927,-0.00045359800000000004
1.079853,-0.0013999930000000002
1.078778,0.00218959
1.077704,-0.000873596
1.076629,-0.001808792
1.075555,0.00226799
1.074481,-0.000845596
1.0734059999999999,-0.001343994
1.0723319999999998,0.0018311920000000001
1.071257,-0.000845596
1.0701829999999999,0.00016239900000000003
1.069108,0.000677597
1.068034,-0.0010135950000000002
1.066959,0.0016015930000000001
1.065885,-0.0004759970000000001
1.06481,-0.0014167930000000002
1.063736,0.0022119900000000005
1.0626609999999999,-0.0008847960000000001
1.061587,-0.001825592
1.060512,0.0022847900000000005
1.0594379999999999,-0.0008511960000000001
1.058363,-0.0013383940000000001
1.057289,0.001825592
1.056214,-0.0008567960000000001
1.05514,0.00020159900000000003
1.054065,0.000655197
1.052991,-0.001024795
1.0519159999999999,0.001635192
1.050842,-0.00048159700000000006
1.049767,-0.0014391930000000003
1.0486929999999999,0.00223439
1.047618,-0.000895996
1.046544,-0.0018535910000000001
1.04547,0.00229599
1.044395,-0.000873596
1.043321,-0.0013383940000000001
1.042246,0.0018143920000000002
1.041172,-0.0008791960000000001
1.040097,0.00022959800000000002
1.039023,0.0006215970000000001
1.0379479999999999,-0.001058395
1.0368739999999999,0.001657592
1.035799,-0.000537597
1.034725,-0.001483993
1.03365,0.0022511900000000006
1.032576,-0.000923995
1.031501,-0.0018815910000000002
1.030427,0.002301589
1.029352,-0.0008847960000000001
1.028278,-0.001327194
1.0272029999999999,0.001808792
1.0261289999999998,-0.0008847960000000001
1.025054,0.00026879800000000005
1.02398,0.0005711970000000001
1.022905,-0.001052795
1.021831,0.0016855920000000003
1.020756,-0.0005487970000000001
1.019682,-0.0014727930000000002
1.018608,0.0022455900000000004
1.017533,-0.000912796
1.016459,-0.0018591910000000003
1.015384,0.002318389
1.01431,-0.0008567960000000001
1.0132349999999999,-0.001271194
1.0121609999999999,0.001808792
1.011086,-0.0008511960000000001
1.010012,0.000313598
1.008937,0.0005935970000000001
1.007863,-0.001024795
1.006788,0.0016799920000000002
1.005714,-0.000543197
1.004639,-0.0014503930000000001
1.003565,0.00222319
1.0024899999999999,-0.0008847960000000001
1.0014159999999999,-0.0018311920000000001
1.000341,0.00225679
0.9992669999999999,-0.0008399960000000001
0.998192,-0.0012487940000000001
0.997118,0.0017527920000000002
0.9960429999999999,-0.0008399960000000001
0.994969,0.00030799800000000003
0.9938939999999999,0.000543197
0.9928199999999999,-0.001019195
0.991745,0.0016295920000000002
0.990671,-0.000543197
0.989597,-0.0014391930000000003
0.9885219999999999,0.00215599
0.987448,-0.0008623960000000001
0.9863729999999999,-0.0017863920000000001
0.9852989999999999,0.00219519
0.984224,-0.0008063960000000001
0.98315,-0.001237594
0.9820749999999999,0.001691192
0.9810009999999999,-0.000817596
0.979926,0.000279998
0.9788519999999999,0.000515197
0.977777,-0.0010135950000000002
0.976703,0.0015791930000000002
0.9756279999999999,-0.0005711970000000001
0.9745539999999999,-0.001467193
0.973479,0.00208879
0.972405,-0.0009183950000000001
0.9713299999999999,-0.001898391
0.970256,0.00214479
0.969181,-0.0008231960000000001
0.9681069999999999,-0.001237594
0.967032,0.001691192
0.965958,-0.0008231960000000001
0.9648829999999999,0.000313598
0.9638089999999999,0.0005095970000000001
0.962735,-0.0010135950000000002
0.96166,0.001640792
0.9605859999999999,-0.000559997
0.959511,-0.0014503930000000001
0.958437,0.0021671900000000003
0.9573619999999999,-0.0008623960000000001
0.9562879999999999,-0.0018367910000000002
0.955213,0.0022063900000000003
0.954139,-0.0008063960000000001
0.9530639999999999,-0.0012431940000000002
0.95199,0.0016855920000000003
0.950915,-0.000817596
0.9498409999999999,0.00035279800000000003
0.948766,0.0004927970000000001
0.947692,-0.001007995
0.9466169999999999,0.001668792
0.9455429999999999,-0.000559997
0.944468,-0.0014503930000000001
0.943394,0.0021839900000000002
0.9423189999999999,-0.0008567960000000001
0.941245,-0.001825592
0.94017,0.0022119900000000005
0.9390959999999999,-0.000800796
0.938021,-0.001198394
0.936947,0.0016855920000000003
0.9358719999999999,-0.000817596
0.9347979999999999,0.00037519800000000004
0.933724,0.000470397
0.932649,-0.001019195
0.9315749999999999,0.0016855920000000003
0.9305,-0.0005711970000000001
0.929426,-0.001461593
0.9283509999999999,0.00218959
0.9272769999999999,-0.0008623960000000001
0.926202,-0.0018367910000000002
0.925128,0.00222319
0.924053,-0.0008063960000000001
0.922979,-0.0011703940000000002
0.921904,0.001691192
0.9208299999999999,-0.000811996
0.919755,0.00040319800000000007
0.918681,0.00046479700000000003
0.9176059999999999,-0.0010135950000000002
0.916532,0.0017023920000000003
0.915457,-0.0005767970000000001
0.914383,-0.0014727930000000002
0.913308,0.00220079
0.912234,-0.0008567960000000001
0.9111589999999999,-0.0018423910000000003
0.9100849999999999,0.00222879
0.90901,-0.0008063960000000001
0.907936,-0.0011871940000000001
0.9068609999999999,0.0016799920000000002
0.905787,-0.000817596
0.904713,0.00041999800000000004
0.9036379999999999,0.00044239800000000004
0.9025639999999999,-0.0010303950000000001
0.901489,0.0017023920000000003
0.900415,-0.0005935970000000001
0.8993399999999999,-0.001483993
0.898266,0.00219519
0.897191,-0.0008679960000000001
0.8961169999999999,-0.001847991
0.895042,0.00221759
0.893968,-0.000817596
0.8928929999999999,-0.001181594
0.8918189999999999,0.001668792
0.890744,-0.0008567960000000001
0.88967,0.00040319800000000007
0.8885949999999999,0.00043119800000000004
0.887521,-0.001041595
0.886446,0.0017135920000000001
0.8853719999999999,-0.000599197
0.884297,-0.0014951930000000001
0.883223,0.00220079
0.8821479999999999,-0.000873596
0.8810739999999999,-0.0018591910000000003
0.879999,0.00222879
0.878925,-0.000817596
0.8778499999999999,-0.0011871940000000001
0.876776,0.0016799920000000002
0.875702,-0.000834396
0.8746269999999999,0.000408798
0.8735529999999999,0.00045359800000000004
0.872478,-0.001035995
0.871404,0.001707992
0.8703289999999999,-0.0005935970000000001
0.869255,-0.0014951930000000001
0.86818,0.0022063900000000003
0.8671059999999999,-0.000873596
0.866031,-0.001847991
0.864957,0.00222319
0.8638819999999999,-0.000817596
0.8628079999999999,-0.001192794
0.861733,0.0016855920000000003
0.860659,-0.000834396
0.859584,0.000408798
0.85851,0.00048159700000000006
0.857435,-0.001024795
0.8563609999999999,0.0017191920000000002
0.855286,-0.0005935970000000001
0.854212,-0.0014895930000000002
0.8531369999999999,0.0022119900000000005
0.852063,-0.000873596
0.850988,-0.0018591910000000003
0.849914,0.0022455900000000004
0.8488399999999999,-0.000817596
0.847765,-0.001198394
0.846691,0.0016855920000000003
0.8456159999999999,-0.000834396
0.844542,0.00040319800000000007
0.843467,0.00046479700000000003
0.842393,-0.001035995
0.841318,0.0017191920000000002
0.840244,-0.0005935970000000001
0.8391689999999999,-0.0014951930000000001
0.8380949999999999,0.00221759
0.83702,-0.000873596
0.835946,-0.001864791
0.8348709999999999,0.0022399900000000003
0.833797,-0.0008231960000000001
0.832722,-0.0012095940000000003
0.8316479999999999,0.001691192
0.830573,-0.0008399960000000001
0.829499,0.000408798
0.8284239999999999,0.00045919700000000006
0.8273499999999999,-0.001035995
0.826275,0.0016855920000000003
0.825201,-0.000599197
0.8241259999999999,-0.0014951930000000001
0.823052,0.0022119900000000005
0.821978,-0.000873596
0.8209029999999999,-0.0018591910000000003
0.8198289999999999,0.00223439
0.818754,-0.000817596
0.81768,-0.001198394
0.8166049999999999,0.0016855920000000003
0.815531,-0.000828796
0.814456,0.00040319800000000007
0.8133819999999999,0.000447998
0.812307,-0.001035995
0.811233,0.0017191920000000002
0.8101579999999999,-0.0005935970000000001
0.8090839999999999,-0.0014895930000000002
0.808009,0.0022063900000000003
0.806935,-0.000873596
0.8058599999999999,-0.0018535910000000001
0.804786,0.00222879
0.803711,-0.000817596
0.8026369999999999,-0.001181594
0.801562,0.0016799920000000002
0.800488,-0.000834396
0.7994129999999999,0.00041999800000000004
0.7983389999999999,0.00045359800000000004
0.797264,-0.001035995
0.79619,0.0017135920000000001
0.795115,-0.0005935970000000001
0.794041,-0.0014727930000000002
0.792967,0.0022119900000000005
0.7918919999999999,-0.0008679960000000001
0.7908179999999999,-0.001847991
0.789743,0.00222879
0.788669,-0.000811996
0.787594,-0.0011703940000000002
0.78652,0.001657592
0.785445,-0.000834396
0.7843709999999999,0.00045359800000000004
0.783296,0.00042559800000000007
0.782222,-0.001035995
0.7811469999999999,0.001730392
0.780073,-0.000599197
0.778998,-0.001500793
0.777924,0.0022119900000000005
0.776849,-0.0008679960000000001
0.775775,-0.001847991
0.7746999999999999,0.00222879
0.7736259999999999,-0.000811996
0.772551,-0.001147995
0.771477,0.0016519920000000001
0.7704019999999999,-0.000828796
0.769328,0.00045919700000000006
0.768253,0.000414398
0.7671789999999999,-0.001035995
0.766104,0.001747192
0.76503,-0.000610397
0.7639549999999999,-0.001500793
0.7628809999999999,0.0022119900000000005
0.761807,-0.0008623960000000001
0.760732,-0.001864791
0.7596579999999999,0.0022119900000000005
0.758583,-0.000811996
0.757509,-0.0011423950000000003
0.7564339999999999,0.0016463920000000002
0.7553599999999999,-0.000834396
0.754285,0.00046479700000000003
0.753211,0.000414398
0.7521359999999999,-0.001035995
0.751062,0.001730392
0.749987,-0.0006047970000000001
0.7489129999999999,-0.001500793
0.747838,0.00220079
0.746764,-0.0008623960000000001
0.7456889999999999,-0.0018367910000000002
0.7446149999999999,0.0022119900000000005
0.74354,-0.0008063960000000001
0.742466,-0.0011423950000000003
0.7413909999999999,0.001640792
0.740317,-0.0008231960000000001
0.739242,0.000470397
0.7381679999999999,0.000414398
0.737093,-0.0010303950000000001
0.736019,0.0017247920000000002
0.734945,-0.0006047970000000001
0.7338699999999999,-0.0014895930000000002
0.732796,0.00219519
0.731721,-0.0008567960000000001
0.7306469999999999,-0.001819992
0.729572,0.00222319
0.728498,-0.0007783960000000001
0.7274229999999999,-0.001075195
0.726349,0.0016855920000000003
0.725274,-0.000755996
0.7242,0.000515197
0.723125,0.00044239800000000004
0.722051,-0.000979995
0.720976,0.001730392
0.7199019999999999,-0.000559997
0.718827,-0.001444793
0.717753,0.0021671900000000003
0.7166779999999999,-0.000828796
0.715604,-0.001791992
0.714529,0.00215039
0.713455,-0.0007951960000000001
0.71238,-0.0011255950000000003
0.711306,0.0015847930000000001
0.710231,-0.000811996
0.7091569999999999,0.000436798
0.708083,0.00037519800000000004
0.707008,-0.001019195
0.705934,0.0016631920000000002
0.704859,-0.000587997
0.703785,-0.001461593
0.70271,0.0021335900000000003
0.7016359999999999,-0.000828796
0.700561,-0.0017863920000000001
0.699487,0.00214479
0.6984119999999999,-0.0007783960000000001
0.697338,-0.0011255950000000003
0.696263,0.0015847930000000001
0.695189,-0.0008063960000000001
0.694114,0.00044239800000000004
0.69304,0.00039759800000000004
0.6919649999999999,-0.001007995
0.6908909999999999,0.0016631920000000002
0.689816,-0.000582397
0.688742,-0.001444793
0.6876669999999999,0.00212799
0.686593,-0.0008231960000000001
0.685518,-0.0017695920000000002
0.6844439999999999,0.00214479
0.683369,-0.0007615960000000001
0.682295,-0.0010863950000000002
0.6812199999999999,0.0016015930000000001
0.6801459999999999,-0.0007783960000000001
0.679072,0.00045359800000000004
0.677997,0.00041999800000000004
0.6769229999999999,-0.0009855950000000001
0.675848,0.001657592
0.674774,-0.000565597
0.6736989999999999,-0.001427993
0.6726249999999999,0.0020943900000000002
0.67155,-0.000811996
0.670476,-0.001747192
0.669401,0.0020999900000000004
0.668327,-0.000755996
0.667252,-0.0010919950000000001
0.6661779999999999,0.001573593
0.665103,-0.0007615960000000001
0.664029,0.00041999800000000004
0.6629539999999999,0.00040319800000000007
0.66188,-0.000968795
0.660805,0.0015959930000000002
0.659731,-0.0005543970000000001
0.658656,-0.001394393
0.657582,0.002021591
0.656507,-0.0007951960000000001
0.6554329999999999,-0.0017135920000000001
0.654358,0.0020271910000000002
0.653284,-0.000739196
0.6522089999999999,-0.001075195
0.651135,0.0015063930000000002
0.650061,-0.000755996
0.648986,0.00039759800000000004
0.6479119999999999,0.00039759800000000004
0.646837,-0.0009351950000000001
0.645763,0.0015567930000000001
0.6446879999999999,-0.0005095970000000001
0.643614,-0.0013327940000000002
0.642539,0.001982391
0.641465,-0.0007335960000000001
0.64039,-0.0016295920000000002
0.639316,0.0019991910000000004
0.638241,-0.0006943960000000001
0.6371669999999999,-0.0010023950000000001
0.636092,0.0014895930000000002
0.635018,-0.000716796
0.6339429999999999,0.000369598
0.632869,0.00038079800000000006
0.631794,-0.0009183950000000001
0.63072,0.001500793
0.629645,-0.0004927970000000001
0.628571,-0.001310394
0.6274959999999999,0.001892791
0.6264219999999999,-0.0007335960000000001
0.625347,-0.001573593
0.624273,0.0018311920000000001
0.6231979999999999,-0.000699996
0.622124,-0.000991195
0.62105,0.001371994
0.6199749999999999,-0.0007111960000000001
0.6189009999999999,0.00034719800000000006
0.617826,0.00035279800000000003
0.616752,-0.000912796
0.6156769999999999,0.0014167930000000002
0.614603,-0.0005095970000000001
0.613528,-0.0012991940000000003
0.6124539999999999,0.0018423910000000003
0.611379,-0.0007279960000000001
0.610305,-0.0015679930000000002
0.6092299999999999,0.001903991
0.6081559999999999,-0.0006831970000000001
0.607081,-0.000963195
0.606007,0.0014503930000000001
0.604932,-0.0007111960000000001
0.603858,0.000408798
0.602783,0.00040319800000000007
0.6017089999999999,-0.0008847960000000001
0.600634,0.0015063930000000002
0.59956,-0.00046479700000000003
0.5984849999999999,-0.0012991940000000003
0.597411,0.0019151910000000001
0.596336,-0.000716796
0.595262,-0.001590393
0.5941879999999999,0.0019319909999999999
0.593113,-0.0007111960000000001
0.592039,-0.000991195
0.5909639999999999,0.0014503930000000001
0.58989,-0.0007615960000000001
0.588815,0.00037519800000000004
0.587741,0.00038639800000000004
0.586666,-0.0009519950000000001
0.585592,0.0014727930000000002
0.584517,-0.000503997
0.5834429999999999,-0.0013383940000000001
0.582368,0.001898391
0.581294,-0.000739196
0.5802189999999999,-0.0016127920000000003
0.579145,0.0019319909999999999
0.57807,-0.0007279960000000001
0.576996,-0.0010023950000000001
0.575921,0.001444793
0.574847,-0.000767196
0.573772,0.00038079800000000006
0.5726979999999999,0.00038639800000000004
0.571623,-0.0009575950000000001
0.570549,0.001483993
0.5694739999999999,-0.0004927970000000001
0.5684,-0.0013663940000000002
0.567326,0.001892791
0.566251,-0.000755996
0.5651769999999999,-0.001623992
0.564102,0.0019431910000000001
0.563028,-0.0007111960000000001
0.5619529999999999,-0.0009519950000000001
0.560879,0.001534393
0.559804,-0.0006663970000000001
0.55873,0.000503997
0.557655,0.000520797
0.556581,-0.000828796
0.5555059999999999,0.0016015930000000001
0.5544319999999999,-0.000358398
0.553357,-0.001192794
0.552283,0.0020327910000000004
0.5512079999999999,-0.000543197
0.550134,-0.001394393
0.549059,0.00208879
0.5479849999999999,-0.000565597
0.54691,-0.0008679960000000001
0.545836,0.0015567930000000001
0.5447609999999999,-0.0006383970000000001
0.5436869999999999,0.000470397
0.542612,0.0004927970000000001
0.541538,-0.000834396
0.540463,0.001534393
0.539389,-0.00041999800000000004
0.538314,-0.0012599940000000002
0.5372399999999999,0.0019599910000000003
0.5361659999999999,-0.0006495970000000001
0.535091,-0.0015063930000000002
0.534017,0.001982391
0.532942,-0.000610397
0.531868,-0.0009015960000000001
0.530793,0.0015455930000000003
0.5297189999999999,-0.0006215970000000001
0.528644,0.00048719700000000003
0.52757,0.000520797
0.5264949999999999,-0.000828796
0.525421,0.001534393
0.524346,-0.0004759970000000001
0.523272,-0.001327194
0.522197,0.0019151910000000001
0.521123,-0.0007727960000000001
0.520048,-0.001668792
0.5189739999999999,0.0019207910000000003
0.517899,-0.000783996
0.516825,-0.0011031950000000002
0.5157499999999999,0.001411193
0.514676,-0.000828796
0.513601,0.00032479800000000006
0.512527,0.000335998
0.511452,-0.001024795
0.510378,0.0014727930000000002
0.509304,-0.000587997
0.5082289999999999,-0.001427993
0.507155,0.0019207910000000003
0.50608,-0.0008231960000000001
0.505006,-0.001747192
0.503931,0.001948791
0.502857,-0.000789596
0.501782,-0.0010863950000000002
0.5007079999999999,0.0014503930000000001
0.499633,-0.000817596
0.498559,0.00037519800000000004
0.497484,0.00034159800000000003
0.49640999999999996,-0.0010023950000000001
0.49533499999999997,0.0015455930000000003
0.49426099999999995,-0.0005711970000000001
0.49318599999999996,-0.001422393
0.492112,0.001982391
0.491037,-0.0008063960000000001
0.489963,-0.001707992
0.488888,0.002010391
0.48781399999999997,-0.0007615960000000001
0.486739,-0.0010471950000000001
0.48566499999999996,0.0014895930000000002
0.48458999999999997,-0.000789596
0.483516,0.000436798
0.48244099999999995,0.00035279800000000003
0.481367,-0.000991195
0.48029299999999997,0.0015959930000000002
0.479218,-0.0005543970000000001
0.47814399999999996,-0.001411193
0.47706899999999997,0.0020327910000000004
0.475995,-0.0007951960000000001
0.47491999999999995,-0.0017135920000000001
0.473846,0.002049591
0.472771,-0.000739196
0.471697,-0.001024795
0.470622,0.001517593
0.46954799999999997,-0.000789596
0.468473,0.00046479700000000003
0.46739899999999995,0.000369598
0.46632399999999996,-0.000991195
0.46525,0.0016295920000000002
0.464175,-0.000565597
0.463101,-0.001427993
0.462026,0.002055191
0.460952,-0.000800796
0.459877,-0.001730392
0.45880299999999996,0.0020607900000000003
0.45772799999999997,-0.000767196
0.456654,-0.001019195
0.45557899999999996,0.001511993
0.454505,-0.000800796
0.45343,0.00048159700000000006
0.452356,0.000358398
0.45128199999999996,-0.001007995
0.45020699999999997,0.0016463920000000002
0.449133,-0.000582397
0.44805799999999996,-0.001444793
0.446984,0.0020775900000000003
0.445909,-0.0008063960000000001
0.444835,-0.001730392
0.44376,0.00208319
0.44268599999999997,-0.0007727960000000001
0.441611,-0.001019195
0.44053699999999996,0.001500793
0.43946199999999996,-0.000817596
0.438388,0.000515197
0.437313,0.00034159800000000003
0.436239,-0.001024795
0.435164,0.0016799920000000002
0.43409,-0.000587997
0.433015,-0.001467193
0.43194099999999996,0.0020999900000000004
0.43086599999999997,-0.000817596
0.429792,-0.0017527920000000002
0.42871699999999996,0.0020943900000000002
0.427643,-0.0007783960000000001
0.426568,-0.001019195
0.425494,0.0015063930000000002
0.42441999999999996,-0.000828796
0.42334499999999997,0.000520797
0.422271,0.00031919800000000003
0.42119599999999996,-0.001041595
0.420122,0.001691192
0.419047,-0.000610397
0.417973,-0.0014951930000000001
0.416898,0.0020999900000000004
0.41582399999999997,-0.000834396
0.414749,-0.001775192
0.41367499999999996,0.00208879
0.41259999999999997,-0.000789596
0.411526,-0.001024795
0.41045099999999995,0.001500793
0.409377,-0.000817596
0.408302,0.000543197
0.407228,0.00031919800000000003
0.406153,-0.0010471950000000001
0.40507899999999997,0.0017023920000000003
0.404004,-0.0006159970000000001
0.40292999999999995,-0.001500793
0.40185499999999996,0.00212239
0.400781,-0.0008231960000000001
0.399706,-0.0017695920000000002
0.398632,0.00211119
0.397557,-0.000789596
0.396483,-0.001007995
0.39540899999999995,0.0014951930000000001
0.39433399999999996,-0.000828796
0.39326,0.000565597
0.392185,0.000291198
0.391111,-0.001058395
0.390036,0.0017191920000000002
0.388962,-0.0006215970000000001
0.387887,-0.0015063930000000002
0.38681299999999996,0.0021335900000000003
0.38573799999999997,-0.0008231960000000001
0.384664,-0.001775192
0.38358899999999996,0.00212239
0.382515,-0.000789596
0.38144,-0.0010023950000000001
0.380366,0.001511993
0.379291,-0.000834396
0.37821699999999997,0.000565597
0.377142,0.000285598
0.37606799999999996,-0.001063995
0.37499299999999997,0.0017135920000000001
0.373919,-0.000632797
0.372844,-0.001528793
0.37177,0.00215039
0.370695,-0.0008399960000000001
0.369621,-0.0017975920000000002
0.368546,0.00212799
0.36747199999999997,-0.0007951960000000001
0.366398,-0.0009967950000000002
0.365323,0.001511993
0.364249,-0.0008399960000000001
0.363174,0.0005935970000000001
0.3621,0.000285598
0.361025,-0.001075195
0.35995099999999997,0.0017583920000000001
0.358876,-0.0006383970000000001
0.357802,-0.0015399930000000001
0.35672699999999996,0.0021671900000000003
0.355653,-0.0008399960000000001
0.354578,-0.0017975920000000002
0.353504,0.00215039
0.352429,-0.0007951960000000001
0.351355,-0.000979995
0.35028,0.001517593
0.34920599999999996,-0.0008399960000000001
0.34813099999999997,0.000610397
0.347057,0.000279998
0.345982,-0.001080795
0.344908,0.0018143920000000002
0.343833,-0.000627197
0.342759,-0.0015455930000000003
0.341684,0.0021783900000000005
0.34060999999999997,-0.000828796
0.339536,-0.0017975920000000002
0.338461,0.00215599
0.337387,-0.000789596
0.336312,-0.000968795
0.335238,0.001511993
0.334163,-0.0008399960000000001
0.33308899999999997,0.000627197
0.332014,0.000274398
0.33094,-0.001080795
0.32986499999999996,0.0017975920000000002
0.328791,-0.000643997
0.327716,-0.001551193
0.326642,0.00219519
0.325567,-0.000834396
0.324493,-0.0017975920000000002
0.323418,0.0021727900000000004
0.32234399999999996,-0.000789596
0.32126899999999997,-0.0009519950000000001
0.320195,0.0015231930000000002
0.31911999999999996,-0.000834396
0.318046,0.000655197
0.316971,0.000285598
0.315897,-0.001075195
0.314822,0.0018143920000000002
0.31374799999999997,-0.0006383970000000001
0.312673,-0.001573593
0.31159899999999996,0.0022063900000000003
0.310525,-0.000828796
0.30945,-0.0018031920000000001
0.308376,0.0021727900000000004
0.307301,-0.000789596
0.30622699999999997,-0.0009519950000000001
0.305152,0.0015231930000000002
0.30407799999999996,-0.0008399960000000001
0.30300299999999997,0.0006495970000000001
0.301929,0.00026879800000000005
0.300854,-0.0010863950000000002
0.29978,0.0018143920000000002
0.298705,-0.000643997
0.297631,-0.0015623930000000002
0.296556,0.0022063900000000003
0.29548199999999997,-0.000834396
0.294407,-0.0018031920000000001
0.293333,0.0021727900000000004
0.29225799999999996,-0.000789596
0.291184,-0.0009519950000000001
0.290109,0.001511993
0.289035,-0.0008399960000000001
0.28796,0.000655197
0.286886,0.000257598
0.285811,-0.0010919950000000001
0.28473699999999996,0.0018031920000000001
0.283663,-0.000655197
0.282588,-0.0015679930000000002
0.281514,0.00219519
0.280439,-0.000817596
0.279365,-0.0018031920000000001
0.27829,0.00216159
0.27721599999999996,-0.0007951960000000001
0.27614099999999997,-0.000946395
0.275067,0.001500793
0.273992,-0.0008511960000000001
0.272918,0.000671997
0.271843,0.00024639800000000005
0.270769,-0.001097595
0.269694,0.001808792
0.26861999999999997,-0.000655197
0.267545,-0.0015679930000000002
0.266471,0.00218959
0.26539599999999997,-0.000834396
0.264322,-0.0018031920000000001
0.263247,0.00215599
0.262173,-0.0007951960000000001
0.261098,-0.0009407950000000001
0.260024,0.0014951930000000001
0.258949,-0.0008399960000000001
0.25787499999999997,0.000660797
0.2568,0.00024079800000000002
0.255726,-0.0010919950000000001
0.254652,0.001808792
0.253577,-0.000660797
0.252503,-0.0015623930000000002
0.251428,0.00218959
0.25035399999999997,-0.000828796
0.249279,-0.0017975920000000002
0.24820499999999998,0.0021335900000000003
0.24713,-0.000800796
0.246056,-0.0009295950000000001
0.24498099999999998,0.001478393
0.24390699999999998,-0.000845596
0.242832,0.000671997
0.241758,0.00023519800000000002
0.24068299999999998,-0.001097595
0.239609,0.001808792
0.238534,-0.000677597
0.23745999999999998,-0.0015567930000000001
0.23638499999999998,0.0021783900000000005
0.235311,-0.0008399960000000001
0.234236,-0.001791992
0.23316199999999998,0.00214479
0.232087,-0.0007951960000000001
0.231013,-0.0009183950000000001
0.22993799999999998,0.001467193
0.22886399999999998,-0.0008511960000000001
0.227789,0.0006943960000000001
0.226715,0.00021279900000000003
0.22564099999999998,-0.001097595
0.224566,0.001819992
0.223492,-0.000671997
0.222417,-0.001573593
0.22134299999999998,0.0021839900000000002
0.220268,-0.000828796
0.219194,-0.001791992
0.21811899999999998,0.0021335900000000003
0.217045,-0.000789596
0.21597,-0.0008847960000000001
0.214896,0.0014559930000000003
0.21382099999999998,-0.000845596
0.212747,0.000716796
0.211672,0.000195999
0.21059799999999998,-0.0011031950000000002
0.209523,0.0018311920000000001
0.208449,-0.000677597
0.207374,-0.0015847930000000001
0.20629999999999998,0.00218959
0.205225,-0.000834396
0.204151,-0.0017863920000000001
0.20307599999999998,0.0021335900000000003
0.202002,-0.0007951960000000001
0.200927,-0.0008791960000000001
0.199853,0.001427993
0.19877799999999998,-0.0008511960000000001
0.197704,0.000739196
0.19663,0.000179199
0.19555499999999998,-0.001108795
0.194481,0.0018367910000000002
0.193406,-0.0006831970000000001
0.192332,-0.0016015930000000001
0.19125699999999998,0.00218959
0.190183,-0.0008399960000000001
0.189108,-0.001791992
0.18803399999999998,0.00212799
0.186959,-0.0007951960000000001
0.185885,-0.0008679960000000001
0.18481,0.001422393
0.18373599999999998,-0.0008511960000000001
0.182661,0.0007335960000000001
0.181587,0.000156799
0.18051199999999998,-0.0011199950000000001
0.179438,0.0018367910000000002
0.178363,-0.0006943960000000001
0.177289,-0.0015959930000000002
0.17621399999999998,0.00218959
0.17514,-0.0008399960000000001
0.174065,-0.001791992
0.172991,0.00212239
0.17191599999999999,-0.000789596
0.170842,-0.0008567960000000001
0.169768,0.0014167930000000002
0.16869299999999998,-0.0008511960000000001
0.167619,0.0007503960000000001
0.166544,0.000167999
0.16547,-0.001108795
0.16439499999999999,0.0018423910000000003
0.163321,-0.000688796
0.162246,-0.0016015930000000001
0.16117199999999998,0.00219519
0.160097,-0.0008399960000000001
0.159023,-0.0017975920000000002
0.157948,0.0021391900000000004
0.15687399999999999,-0.000800796
0.155799,-0.0008679960000000001
0.154725,0.001422393
0.15364999999999998,-0.0008567960000000001
0.152576,0.000767196
0.151501,0.000179199
0.150427,-0.0011199950000000001
0.14935199999999998,0.0018535910000000001
0.148278,-0.0006943960000000001
0.147203,-0.001618392
0.14612899999999998,0.0022119900000000005
0.145054,-0.000845596
0.14398,-0.001808792
0.142905,0.00214479
0.14183099999999998,-0.0008063960000000001
0.140757,-0.000873596
0.139682,0.0014391930000000003
0.13860799999999998,-0.0008679960000000001
0.137533,0.000755996
0.136459,0.000156799
0.135384,-0.0011367950000000001
0.13430999999999998,0.0018703910000000001
0.133235,-0.0007055960000000001
0.132161,-0.0016295920000000002
0.13108599999999998,0.00222319
0.130012,-0.0008567960000000001
0.128937,-0.001819992
0.127863,0.00215039
0.12678799999999998,-0.000811996
0.125714,-0.0008623960000000001
0.124639,0.001427993
0.123565,-0.0008791960000000001
0.12248999999999999,0.0007783960000000001
0.121416,0.00015119900000000003
0.12034099999999999,-0.0011703940000000002
0.119267,0.0018703910000000001
0.11819199999999999,-0.000722396
0.117118,-0.0016463920000000002
0.116043,0.00223439
0.11496899999999999,-0.0008623960000000001
0.113894,-0.001819992
0.11281999999999999,0.00215599
0.111746,-0.000817596
0.11067099999999999,-0.0008511960000000001
0.109597,0.0014167930000000002
0.108522,-0.0008847960000000001
0.107448,0.000800796
0.106373,0.00013439900000000003
0.10529899999999999,-0.001164794
0.104224,0.001892791
0.10314999999999999,-0.000722396
0.102075,-0.0016519920000000001
0.101001,0.00223439
0.099926736,-0.0008679960000000001
0.098852256,-0.0018311920000000001
0.09777777600000001,0.00215599
0.09670329600000001,-0.000828796
0.095628816,-0.0008567960000000001
0.094554336,0.001422393
0.093479848,-0.0008903960000000001
0.092405368,0.0007951960000000001
0.09133089600000001,0.00013439900000000003
0.09025640800000001,-0.001164794
0.08918192800000001,0.001892791
0.088107448,-0.000699996
0.087032968,-0.0016463920000000002
0.08595848,0.0022399900000000003
0.084884,-0.0008679960000000001
0.08380952800000001,-0.0018311920000000001
0.08273504000000001,0.00216159
0.08166056000000001,-0.0008231960000000001
0.08058607200000001,-0.0008399960000000001
0.0795116,0.001411193
0.07843712,-0.000873596
0.077362632,0.000811996
0.07628816000000001,0.000145599
0.07521367200000001,-0.0011535940000000002
0.074139192,0.001903991
0.073064712,-0.000716796
0.071990232,-0.0016519920000000001
0.070915752,0.0022455900000000004
0.069841264,-0.0008623960000000001
0.068766784,-0.0018311920000000001
0.067692312,0.0021783900000000005
0.066617824,-0.000817596
0.065543348,-0.000845596
0.06446886,0.0014391930000000003
0.063394384,-0.0008847960000000001
0.062319900000000004,0.0008063960000000001
0.06124542,0.000145599
0.060170940000000006,-0.0011591940000000001
0.05909646,0.0019095910000000002
0.058021976,-0.000716796
0.056947496,-0.0016631920000000002
0.055873016000000005,0.00222319
0.054798532000000004,-0.000873596
0.053724056000000006,-0.0018367910000000002
0.052649572000000006,0.0021671900000000003
0.051575092,-0.0008231960000000001
0.050500608,-0.0008511960000000001
0.049426128,0.001422393
0.048351648000000004,-0.0008903960000000001
0.047277168,0.000800796
0.046202684,0.000139999
0.045128204000000005,-0.001164794
0.044053724,0.0019095910000000002
0.04297924,-0.0007279960000000001
0.041904764000000004,-0.0016631920000000002
0.040830280000000004,0.0022511900000000006
0.0397558,-0.0008679960000000001
0.038681316,-0.0018367910000000002
0.037606836000000005,0.0021783900000000005
0.036532356,-0.000828796
0.035457876,-0.000834396
0.034383392,0.0014167930000000002
0.033308912,-0.000895996
0.03223443,0.0008231960000000001
0.031159950000000002,0.00011759900000000001
0.030085470000000003,-0.0011703940000000002
0.029010988,0.0019263910000000004
0.027936508000000002,-0.000739196
0.026862028000000003,-0.0016799920000000002
0.025787546,0.00226239
0.024713064,-0.000873596
0.023638584,-0.0018143920000000002
0.022564102000000003,0.0021783900000000005
0.02148962,-0.0008231960000000001
0.020415140000000002,-0.000811996
0.019340658,0.001411193
0.018266178,-0.000895996
0.017191696,0.0008511960000000001
0.016117215,0.00010639900000000001
0.015042735000000002,-0.001181594
0.013968254000000001,0.0019319909999999999
0.012893773,-0.0007335960000000001
0.011819292,-0.0016855920000000003
0.01074481,0.00226239
0.009670329,-0.0008679960000000001
0.008595848,-0.001825592
0.007521367,0.0021671900000000003
0.006446886000000001,-0.000828796
0.005372405,-0.000789596
0.004297924,0.0013887930000000001
0.0032234430000000003,-0.0009015960000000001
0.002148962,0.000873596
0.001074481,8.959960800000002e-05
0.0,-0.0011871940000000001
-0.001074481,0.001948791
-0.002148962,-0.000744796
-0.0032234430000000003,-0.001691192
-0.004297924,0.00226799
-0.005372405,-0.0008679960000000001
-0.006446886000000001,-0.001819992
-0.007521367,0.0021671900000000003
-0.008595848,-0.0008231960000000001
-0.009670329,-0.0007783960000000001
-0.01074481,0.0013663940000000002
-0.011819292,-0.0009071960000000001
-0.012893773,0.0009015960000000001
-0.013968254000000001,7.279968000000001e-05
-0.015042735000000002,-0.001192794
-0.016117215,0.0019599910000000003
-0.017191696,-0.000744796
-0.018266178,-0.001691192
-0.019340658,0.0022735900000000002
-0.020415140000000002,-0.0008623960000000001
-0.02148962,-0.0018143920000000002
-0.022564102000000003,0.0021727900000000004
-0.023638584,-0.000828796
-0.024713064,-0.000755996
-0.025787546,0.001377593
-0.026862028000000003,-0.0009071960000000001
-0.027936508000000002,0.0009183950000000001
-0.029010988,6.7199712e-05
-0.030085470000000003,-0.001198394
-0.031159950000000002,0.001971191
-0.03223443,-0.0007503960000000001
-0.033308912,-0.0016967920000000001
-0.034383392,0.0022847900000000005
-0.035457876,-0.0008623960000000001
-0.036532356,-0.001808792
-0.037606836000000005,0.0021671900000000003
-0.038681316,-0.000828796
-0.0397558,-0.0007335960000000001
-0.040830280000000004,0.0013831930000000002
-0.041904764000000004,-0.0009015960000000001
-0.04297924,0.000923995
-0.044053724,6.7199712e-05
-0.045128204000000005,-0.0011871940000000001
-0.046202684,0.001982391
-0.047277168,-0.0007503960000000001
-0.048351648000000004,-0.0016967920000000001
-0.049426128,0.00229039
-0.050500608,-0.0008679960000000001
-0.051575092,-0.001808792
-0.052649572000000006,0.0021783900000000005
-0.053724056000000006,-0.0008231960000000001
-0.054798532000000004,-0.0007279960000000001
-0.055873016000000005,0.001371994
-0.056947496,-0.0009071960000000001
-0.058021976,0.0009295950000000001
-0.05909646,6.7199712e-05
-0.060170940000000006,-0.001198394
-0.06124542,0.001982391
-0.062319900000000004,-0.0007503960000000001
-0.063394384,-0.0017023920000000003
-0.06446886,0.0022847900000000005
-0.065543348,-0.0008623960000000001
-0.066617824,-0.0018143920000000002
-0.067692312,0.0021783900000000005
-0.068766784,-0.000828796
-0.069841264,-0.0007503960000000001
-0.070915752,0.0013887930000000001
-0.071990232,-0.000895996
-0.073064712,0.000895996
-0.074139192,7.279968000000001e-05
-0.07521367200000001,-0.001198394
-0.07628816000000001,0.001976791
-0.077362632,-0.0007503960000000001
-0.07843712,-0.0016855920000000003
-0.0795116,0.0022847900000000005
-0.08058607200000001,-0.0008679960000000001
-0.08166056000000001,-0.001819992
-0.08273504000000001,0.0021839900000000002
-0.08380952800000001,-0.000828796
-0.084884,-0.000755996
-0.08595848,0.001394393
-0.087032968,-0.0009071960000000001
-0.088107448,0.000912796
-0.08918192800000001,8.959960800000002e-05
-0.09025640800000001,-0.001192794
-0.09133089600000001,0.001982391
-0.092405368,-0.000744796
-0.093479848,-0.0016967920000000001
-0.094554336,0.0023071890000000003
-0.095628816,-0.0008679960000000001
-0.09670329600000001,-0.001825592
-0.09777777600000001,0.00220079
-0.098852256,-0.000828796
-0.099926736,-0.0007727960000000001
-0.101001,0.001411193
-0.102075,-0.0009071960000000001
-0.10314999999999999,0.0009071960000000001
-0.104224,0.00011759900000000001
-0.10529899999999999,-0.001181594
-0.106373,0.001982391
-0.107448,-0.0007335960000000001
-0.108522,-0.001691192
-0.109597,0.0023071890000000003
-0.11067099999999999,-0.0008623960000000001
-0.111746,-0.0018367910000000002
-0.11281999999999999,0.0022119900000000005
-0.113894,-0.000828796
-0.11496899999999999,-0.000783996
-0.116043,0.001427993
-0.117118,-0.0009015960000000001
-0.11819199999999999,0.0008847960000000001
-0.119267,0.00010639900000000001
-0.12034099999999999,-0.001192794
-0.121416,0.001987991
-0.12248999999999999,-0.000739196
-0.123565,-0.0017023920000000003
-0.124639,0.0023239890000000003
-0.125714,-0.000873596
-0.12678799999999998,-0.001847991
-0.127863,0.00223439
-0.128937,-0.000834396
-0.130012,-0.000800796
-0.13108599999999998,0.001444793
-0.132161,-0.000912796
-0.133235,0.000895996
-0.13430999999999998,0.00012319900000000002
-0.135384,-0.001198394
-0.136459,0.001976791
-0.137533,-0.000755996
-0.13860799999999998,-0.0017191920000000002
-0.139682,0.002335189
-0.140757,-0.0008791960000000001
-0.14183099999999998,-0.001864791
-0.142905,0.0022455900000000004
-0.14398,-0.000845596
-0.145054,-0.000817596
-0.14612899999999998,0.0014503930000000001
-0.147203,-0.0009183950000000001
-0.148278,0.000895996
-0.14935199999999998,0.00012319900000000002
-0.150427,-0.0012095940000000003
-0.151501,0.002010391
-0.152576,-0.0007503960000000001
-0.15364999999999998,-0.0017247920000000002
-0.154725,0.0023519890000000005
-0.155799,-0.0008903960000000001
-0.15687399999999999,-0.0018815910000000002
-0.157948,0.0022511900000000006
-0.159023,-0.0008567960000000001
-0.160097,-0.000834396
-0.16117199999999998,0.0014727930000000002
-0.162246,-0.0009295950000000001
-0.163321,0.0008791960000000001
-0.16439499999999999,0.00012319900000000002
-0.16547,-0.001215194
-0.166544,0.002010391
-0.167619,-0.000755996
-0.16869299999999998,-0.001707992
-0.169768,0.002374389
-0.170842,-0.000895996
-0.17191599999999999,-0.001898391
-0.172991,0.0022791900000000004
-0.174065,-0.0008567960000000001
-0.17514,-0.000845596
-0.17621399999999998,0.001483993
-0.177289,-0.0009295950000000001
-0.178363,0.000873596
-0.179438,0.000139999
-0.18051199999999998,-0.001220794
-0.181587,0.0020271910000000002
-0.182661,-0.000755996
-0.18373599999999998,-0.0017359920000000002
-0.18481,0.002368789
-0.185885,-0.0009015960000000001
-0.186959,-0.0019095910000000002
-0.18803399999999998,0.0022791900000000004
-0.189108,-0.0008623960000000001
-0.190183,-0.0008679960000000001
-0.19125699999999998,0.001500793
-0.192332,-0.0009295950000000001
-0.193406,0.0008679960000000001
-0.194481,0.00015119900000000003
-0.19555499999999998,-0.001220794
-0.19663,0.002010391
-0.197704,-0.000755996
-0.19877799999999998,-0.0017359920000000002
-0.199853,0.002374389
