Potential (V),Current (µA)
-0.400244,-1.679992
-0.398095,-1.1199949999999999
-0.39594599999999996,-0.839996
-0.393797,-0.391998
-0.391648,-0.33599799999999996
-0.389499,-0.33599799999999996
-0.38734999999999997,-0.251998
-0.38520099999999996,-0.223999
-0.383052,-0.16799899999999998
-0.380903,-0.153999
-0.378754,-0.139999
-0.37660499999999997,-0.125999
-0.37445599999999996,-0.111999
-0.372307,-0.104999
-0.370158,-0.09799956800000001
-0.368009,-0.09099960000000001
-0.36585999999999996,-0.09449958400000001
-0.363711,-0.09099960000000001
-0.361562,-0.085749616
-0.359413,-0.085749616
-0.35726399999999997,-0.078749648
-0.35511499999999996,-0.07699965600000001
-0.352967,-0.070874688
-0.35081799999999996,-0.06474971600000001
-0.348669,-0.05862474000000001
-0.34652,-0.05206226800000001
-0.344371,-0.048999784000000005
-0.34222199999999997,-0.045718548000000005
-0.34007299999999996,-0.044406052
-0.337924,-0.048343536000000006
-0.335775,-0.088812104
-0.333626,-0.09526520000000001
-0.33147699999999997,-0.10248299999999999
-0.329328,-0.105765
-0.327179,-0.10609299999999999
-0.32503,-0.106202
-0.322881,-0.106421
-0.32073199999999996,-0.102374
-0.318583,-0.09493708000000001
-0.316434,-0.08837460800000001
-0.314285,-0.079624648
-0.31213599999999997,-0.07164031200000001
-0.309987,-0.06048410800000001
-0.307838,-0.054796632000000005
-0.305689,-0.057968492
-0.30354,-0.06321846800000001
-0.30139099999999996,-0.07667153600000001
-0.299242,-0.08039026400000002
-0.29709399999999997,-0.086624616
-0.294945,-0.09165584000000002
-0.292796,-0.09504644800000002
-0.290647,-0.095374576
-0.288498,-0.09614020000000001
-0.28634899999999996,-0.093077712
-0.2842,-0.086296496
-0.282051,-0.079405896
-0.279902,-0.07295280000000001
-0.27775299999999997,-0.0617966
-0.27560399999999996,-0.054468508000000006
-0.273455,-0.045718548000000005
-0.271306,-0.049656028000000005
-0.269157,-0.058515364
-0.26700799999999997,-0.068140328
-0.264859,-0.076452784
-0.26271,-0.08028088800000001
-0.260561,-0.08542149600000001
-0.258412,-0.087499616
-0.25626299999999996,-0.089905856
-0.254114,-0.087499616
-0.251965,-0.084437128
-0.24981599999999998,-0.08006214400000002
-0.247667,-0.07174968000000001
-0.245518,-0.066499704
-0.243369,-0.05709349600000001
-0.24122,-0.047906036000000006
-0.23907199999999998,-0.03871858
-0.236923,-0.046484168
-0.23477399999999998,-0.050312276
-0.232625,-0.06168722800000001
-0.230476,-0.067484072
-0.228327,-0.073171552
-0.226178,-0.078421528
-0.22402899999999998,-0.08148400800000001
-0.22188,-0.08181213600000001
-0.21973099999999998,-0.082140264
-0.217582,-0.07524966400000001
-0.21543299999999999,-0.072843432
-0.213284,-0.065296584
-0.211135,-0.059718484
-0.20898599999999998,-0.048890408
-0.206837,-0.042327936000000004
-0.20468799999999998,-0.035874840000000005
-0.202539,-0.03849982800000001
-0.20038999999999998,-0.048234160000000005
-0.198241,-0.05545288
-0.196092,-0.058296616
-0.193943,-0.06989031200000001
-0.191794,-0.07021843200000001
-0.18964499999999998,-0.078421528
-0.187496,-0.074374672
-0.18534699999999998,-0.07656216
-0.183199,-0.072187176
-0.18105,-0.068030952
-0.178901,-0.06321846800000001
-0.176752,-0.05381226
-0.17460299999999998,-0.044624800000000006
-0.172454,-0.04024982
-0.17030499999999998,-0.032593606000000004
-0.168156,-0.03751546
-0.166007,-0.044077928
-0.163858,-0.05239039200000001
-0.161709,-0.058405992000000004
-0.15955999999999998,-0.06343722
-0.157411,-0.07240592800000001
-0.15526199999999998,-0.07021843200000001
-0.153113,-0.072843432
-0.150964,-0.07174968000000001
-0.148815,-0.06846844800000002
-0.146666,-0.066609076
-0.144517,-0.058515364
-0.142368,-0.054359132000000004
-0.14021899999999998,-0.044296680000000005
-0.13807,-0.036968588000000004
-0.135921,-0.034890468
-0.133772,-0.037406084000000006
-0.131623,-0.041452944000000005
-0.129474,-0.049327904000000006
-0.127326,-0.05567162800000001
-0.12517699999999998,-0.06453096000000001
-0.123028,-0.065624704
-0.120879,-0.073390296
-0.11872999999999999,-0.070984056
-0.11658099999999999,-0.06890594400000001
-0.11443199999999999,-0.069452816
-0.112283,-0.06332784
-0.110134,-0.058077868000000005
-0.107985,-0.051077896000000005
-0.105836,-0.043202936000000004
-0.103687,-0.039265452000000006
-0.10153799999999999,-0.03423422400000001
-0.099389504,-0.039265452000000006
-0.097240536,-0.042984184
-0.09509157600000001,-0.04779666400000001
-0.09294260800000001,-0.058077868000000005
-0.090793648,-0.06343722
-0.088644688,-0.06431221200000001
-0.08649572800000001,-0.070984056
-0.08434676,-0.06901531200000001
-0.0821978,-0.071202808
-0.08004884000000001,-0.06693720400000001
-0.07789987200000001,-0.06464034
-0.07575092,-0.05753099600000001
-0.073601952,-0.051077896000000005
-0.071452992,-0.047249792000000006
-0.069304024,-0.039812324
-0.067155064,-0.035327968
-0.065006108,-0.03893732800000001
-0.062857144,-0.044406052
-0.06070818,-0.049874776
-0.058559216000000004,-0.056874748
-0.056410256000000006,-0.06431221200000001
-0.054261292,-0.06890594400000001
-0.052112328000000006,-0.066390328
-0.049963368,-0.07393717600000001
-0.047814408,-0.069452816
-0.045665448000000004,-0.067484072
-0.043516484,-0.06507783600000001
-0.041367520000000005,-0.056656
-0.03921856,-0.05315601200000001
-0.037069596,-0.047906036000000006
-0.034920632,-0.04385918
-0.032771674,-0.037952956
-0.03062271,-0.039921700000000004
-0.028473748,-0.047577912
-0.026324786000000003,-0.051077896000000005
-0.024175824000000002,-0.05939036000000001
-0.022026862,-0.061577852
-0.0198779,-0.067593448
-0.017728938,-0.07076531200000001
-0.015579975000000001,-0.07043719200000001
-0.013431014000000002,-0.07328092000000001
-0.011282051000000001,-0.06890594400000001
-0.009133089,-0.06343722
-0.0069841270000000006,-0.062015348000000005
-0.004835164,-0.053046640000000006
-0.0026862020000000004,-0.050749776
-0.00053724,-0.044406052
0.0016117210000000002,-0.041015444000000005
0.0037606830000000003,-0.044077928
0.005909646,-0.04735916400000001
0.008058607,-0.05643725200000001
0.010207570000000001,-0.058734116
0.012356532,-0.061577852
0.014505494,-0.06890594400000001
0.016654456,-0.070655936
0.018803418000000002,-0.07415592
0.020952382000000002,-0.070984056
0.023101342,-0.068359072
0.025250304,-0.066390328
0.027399266000000002,-0.06059348
0.02954823,-0.05862474000000001
0.031697192,-0.052609140000000006
0.033846156,-0.04582792000000001
0.035995116,-0.044406052
0.038144080000000004,-0.047906036000000006
0.040293036000000004,-0.051843520000000004
0.042442,-0.058515364
0.044590964000000004,-0.062890344
0.046739924,-0.06857782400000001
0.048888888000000005,-0.07251529599999999
0.051037852,-0.077218408
0.053186812,-0.076452784
0.055335776,-0.07546841600000001
0.057484736,-0.07262468000000001
0.059633700000000005,-0.07164031200000001
0.06178266,-0.06584346
0.06393162000000001,-0.06059348
0.066080584,-0.056656
0.068229552,-0.05239039200000001
0.070378512,-0.047468540000000004
0.07252747200000001,-0.055781004
0.074676432,-0.058187244
0.076825392,-0.062780972
0.07897436000000001,-0.07174968000000001
0.08112332,-0.07514029600000001
0.08327228,-0.08203088800000001
0.08542124000000001,-0.08170276
0.08757020800000001,-0.086952736
0.089719168,-0.084327752
0.091868136,-0.081921512
0.09401709600000001,-0.07864028
0.096166048,-0.07415592
0.098315016,-0.06518721200000001
0.100463,-0.06267159600000001
